Frequency [Hz],Amplitude,X [mm],Y [mm]
0.0,2.2321,-1.2768,-2.0843
0.0386,-1.583,-4.7935,-4.4933
0.0773,-1.8828,-4.8056,-5.4051
0.1159,-2.0641,-5.4626,-4.7911
0.1546,-2.1772,-5.0344,-5.0309
0.1932,-2.2909,-4.8924,-5.1822
0.2319,-2.368,-4.9457,-4.7464
0.2705,-2.421,-5.3747,-5.2545
0.3092,-2.471,-5.0391,-5.0247
0.3478,-2.5267,-5.0573,-5.223
0.3865,-2.6061,-4.4562,-4.6534
0.4251,-2.6286,-4.769,-4.7874
0.4638,-2.6541,-4.9146,-4.8552
0.5024,-2.7152,-4.8623,-4.7087
0.541,-2.7119,-5.0897,-5.169
0.5797,-2.7178,-5.0483,-4.8813
0.6183,-2.7797,-4.8679,-4.4717
0.657,-2.7898,-4.6837,-4.5801
0.6956,-2.8467,-4.9388,-4.5044
0.7343,-2.8642,-4.916,-4.8336
0.7729,-2.8616,-4.9338,-5.0932
0.8116,-2.8825,-4.4962,-5.3388
0.8502,-2.9681,-5.1198,-4.7924
0.8889,-2.9411,-4.5111,-4.9802
0.9275,-2.8938,-4.894,-4.6508
0.9662,-2.9534,-4.234,-4.4992
1.0048,-3.0016,-5.0123,-4.6082
1.0435,-3.0037,-4.672,-5.1138
1.0821,-3.0428,-4.6005,-4.5474
1.1207,-3.0588,-4.5523,-5.3803
1.1594,-3.0567,-4.3661,-4.9034
1.198,-3.081,-4.997,-5.4608
1.2367,-3.0793,-4.5561,-5.1152
1.2753,-3.0598,-4.3008,-5.1774
1.314,-3.0589,-4.7646,-4.6375
1.3526,-3.0971,-4.5779,-5.2427
1.3913,-3.1277,-4.608,-4.6966
1.4299,-3.1371,-4.4519,-4.7068
1.4686,-3.1531,-4.0697,-4.5429
1.5072,-3.1958,-4.4464,-4.3724
1.5459,-3.1701,-4.2977,-4.9971
1.5845,-3.1906,-4.4345,-4.9085
1.6231,-3.2758,-4.4023,-4.5144
1.6618,-3.2198,-4.4217,-4.5801
1.7004,-3.145,-4.3137,-4.5777
1.7391,-3.2622,-4.6701,-4.5025
1.7777,-3.2814,-4.2879,-4.4552
1.8164,-3.242,-4.6776,-4.4414
1.855,-3.2628,-4.3367,-4.417
1.8937,-3.2585,-4.2229,-5.2406
1.9323,-3.3201,-4.0126,-4.5578
1.971,-3.3736,-4.3543,-5.2284
2.0096,-3.3469,-4.0888,-4.5181
2.0483,-3.234,-4.0894,-5.2805
2.0869,-3.2931,-4.8935,-4.6495
2.1256,-3.3301,-4.1756,-4.7985
2.1642,-3.2924,-4.2086,-4.5776
2.2028,-3.4149,-4.3554,-4.724
2.2415,-3.3859,-4.1976,-4.4662
2.2801,-3.2684,-4.8215,-4.7329
2.3188,-3.413,-4.2666,-5.3251
2.3574,-3.4303,-4.1185,-4.4844
2.3961,-3.363,-4.2686,-4.8791
2.4347,-3.3658,-4.1827,-4.8103
2.4734,-3.4087,-4.2202,-4.5489
2.512,-3.3409,-4.4214,-5.0964
2.5507,-3.3353,-4.0769,-4.4211
2.5893,-3.4024,-3.804,-4.799
2.628,-3.4996,-3.9944,-4.6504
2.6666,-3.3831,-4.438,-5.4514
2.7052,-3.3866,-4.1265,-4.4356
2.7439,-3.5317,-4.1813,-4.5123
2.7825,-3.3674,-4.4623,-4.5545
2.8212,-3.4893,-3.9846,-4.5525
2.8598,-3.4287,-4.3239,-4.6506
2.8985,-3.4592,-3.9625,-5.1096
2.9371,-3.5654,-3.8289,-4.4901
2.9758,-3.4934,-4.3206,-4.9034
3.0144,-3.5099,-3.9651,-4.4461
3.0531,-3.4954,-3.8492,-5.0911
3.0917,-3.5236,-4.2615,-4.6663
3.1304,-3.5544,-4.0324,-5.0216
3.169,-3.7154,-4.2711,-4.4773
3.2077,-3.425,-4.6499,-4.3005
3.2463,-3.5127,-5.101,-4.5958
3.2849,-3.5754,-4.3369,-4.4876
3.3236,-3.4952,-4.5757,-4.3186
3.3622,-3.461,-4.6976,-4.4741
3.4009,-3.5679,-4.2556,-4.7928
3.4395,-3.5815,-5.2803,-4.8419
3.4782,-3.4412,-4.208,-4.4514
3.5168,-3.4389,-4.5029,-4.5597
3.5555,-3.5596,-4.1165,-4.6054
3.5941,-3.5411,-4.0619,-4.6031
3.6328,-3.4421,-3.9991,-4.3871
3.6714,-3.5411,-5.2139,-4.4552
3.7101,-3.6814,-4.4635,-4.4447
3.7487,-3.4475,-3.8084,-4.5449
3.7873,-3.5083,-4.3073,-5.0198
3.826,-3.5298,-3.7767,-4.5743
3.8646,-3.4794,-4.1752,-4.7735
3.9033,-3.5709,-4.0753,-4.4714
3.9419,-3.6613,-4.3832,-4.5787
3.9806,-3.5905,-4.2312,-4.3834
4.0192,-3.5115,-3.8997,-4.6226
4.0579,-3.6163,-4.2629,-4.4112
4.0965,-3.7053,-3.9789,-4.4738
4.1352,-3.6711,-4.1111,-4.7403
4.1738,-3.5293,-4.3265,-4.6799
4.2125,-3.5884,-4.4096,-4.7585
4.2511,-3.7257,-4.3569,-4.6226
4.2898,-3.5821,-4.0207,-4.5719
4.3284,-3.6262,-4.2011,-4.1043
4.367,-3.674,-3.8499,-4.4576
4.4057,-3.6998,-3.9737,-4.1642
4.4443,-3.6821,-3.9351,-4.3163
4.483,-3.6237,-3.9122,-4.58
4.5216,-3.7251,-3.9026,-4.6262
4.5603,-3.6601,-4.1835,-4.7993
4.5989,-3.7312,-4.1352,-4.4424
4.6376,-3.5908,-4.0156,-4.8406
4.6762,-3.65,-4.1278,-4.3881
4.7149,-3.6906,-4.1518,-4.3758
4.7535,-3.549,-3.8631,-4.7145
4.7922,-3.6739,-4.1597,-4.529
4.8308,-3.6518,-4.226,-5.1819
4.8694,-3.6268,-4.4014,-4.7068
4.9081,-3.8489,-3.8214,-4.5326
4.9467,-3.6515,-3.9383,-4.6046
4.9854,-3.7251,-4.1334,-4.6176
5.024,-3.7326,-4.2689,-4.4656
5.0627,-3.8388,-3.9411,-4.5764
5.1013,-3.7936,-4.0935,-4.5358
5.14,-3.7191,-4.4769,-4.3238
5.1786,-3.9007,-4.0378,-4.7978
5.2173,-3.6157,-4.3712,-4.5259
5.2559,-3.6646,-4.1367,-4.7533
5.2946,-3.7444,-3.6291,-4.6445
5.3332,-3.7544,-4.2076,-4.4965
5.3719,-3.7813,-4.4609,-4.364
5.4105,-3.6465,-3.8139,-4.4781
5.4491,-3.6274,-4.0769,-5.034
5.4878,-3.6297,-3.8026,-4.5862
5.5264,-3.6613,-4.5993,-4.6895
5.5651,-3.8366,-3.9033,-4.8222
5.6037,-3.6562,-4.0398,-4.2251
5.6424,-3.8457,-4.0304,-4.9062
5.681,-3.7312,-4.296,-4.1815
5.7197,-3.969,-3.6246,-4.5543
5.7583,-3.7589,-4.0984,-4.4056
5.797,-3.597,-4.8424,-4.6276
5.8356,-3.7177,-4.1158,-4.3805
5.8743,-3.7894,-3.9337,-4.6319
5.9129,-3.878,-3.8543,-4.4298
5.9515,-3.7639,-3.7833,-5.0563
5.9902,-3.6812,-4.133,-4.4334
6.0288,-3.7299,-4.1277,-4.6472
6.0675,-3.757,-4.2189,-4.2439
6.1061,-4.2743,-3.5484,-4.2709
6.1448,-3.7644,-4.0906,-4.5032
6.1834,-4.1557,-3.7129,-4.2911
6.2221,-3.9049,-4.2762,-4.4061
6.2607,-3.9913,-4.1367,-4.3027
6.2994,-3.6968,-3.9829,-4.6481
6.338,-3.7978,-4.0325,-4.866
6.3767,-3.7776,-4.1822,-4.9416
6.4153,-3.9467,-4.1199,-4.712
6.454,-3.8786,-4.2126,-4.4093
6.4926,-4.0548,-3.7302,-4.5603
6.5312,-4.1101,-4.3938,-4.3744
6.5699,-3.6787,-3.9242,-4.4175
6.6085,-3.9856,-4.2007,-4.3092
6.6472,-3.6975,-3.9348,-4.4107
6.6858,-3.6065,-4.0022,-4.5882
6.7245,-3.8676,-3.9619,-4.1831
6.7631,-3.7854,-3.9642,-4.6328
6.8018,-3.7808,-3.9278,-4.6604
6.8404,-3.8098,-4.2087,-4.487
6.8791,-3.9938,-4.374,-4.5962
6.9177,-3.7573,-4.1264,-4.5024
6.9564,-3.6519,-3.9398,-5.2631
6.995,-3.9469,-4.4596,-4.3938
7.0336,-3.7399,-4.5992,-4.3942
7.0723,-4.0831,-4.2214,-4.6608
7.1109,-3.7191,-3.6499,-5.2837
7.1496,-3.706,-3.9999,-4.5798
7.1882,-3.8204,-3.8453,-5.061
7.2269,-3.7632,-4.1889,-4.4567
7.2655,-3.6385,-4.4357,-4.3412
7.3042,-3.7531,-4.0275,-4.6886
7.3428,-3.806,-4.3006,-4.7634
7.3815,-3.5658,-3.7799,-4.1631
7.4201,-3.6181,-3.7351,-4.4492
7.4588,-3.7548,-3.9413,-4.1274
7.4974,-3.7029,-3.9003,-4.6284
7.5361,-3.6914,-4.0025,-4.4039
7.5747,-3.8683,-4.303,-4.8262
7.6133,-3.7296,-3.9625,-5.1868
7.652,-3.8135,-4.4039,-5.0016
7.6906,-3.8373,-4.0222,-4.9631
7.7293,-4.0278,-3.8594,-4.8503
7.7679,-3.9988,-3.9683,-4.5802
7.8066,-3.915,-4.397,-4.7165
7.8452,-3.7918,-4.6555,-4.6373
7.8839,-4.4047,-3.605,-4.7338
7.9225,-3.7966,-3.9511,-4.3136
7.9612,-3.9732,-4.2787,-4.5754
7.9998,-4.0154,-4.2334,-4.4499
8.0385,-3.6307,-3.7368,-4.5339
8.0771,-3.8031,-4.3374,-4.1828
8.1157,-3.9292,-5.0697,-4.619
8.1544,-3.6179,-3.6547,-4.7151
8.193,-3.6052,-3.6174,-4.5259
8.2317,-3.9852,-3.9251,-4.4549
8.2703,-4.0438,-3.6945,-4.2991
8.309,-3.9379,-4.3155,-4.5199
8.3476,-3.8637,-3.8456,-4.8246
8.3863,-4.0033,-4.0271,-4.719
8.4249,-4.1274,-4.2869,-4.8345
8.4636,-4.1694,-3.9042,-4.5952
8.5022,-4.0512,-3.7114,-4.6432
8.5409,-4.0268,-3.9892,-4.6533
8.5795,-3.8665,-3.8812,-4.6929
8.6182,-4.3064,-3.6978,-4.8313
8.6568,-3.9717,-4.1124,-4.9297
8.6954,-3.8064,-3.897,-4.8434
8.7341,-3.966,-4.2211,-4.5206
8.7727,-4.0263,-3.8305,-4.4453
8.8114,-4.3391,-3.9645,-4.7079
8.85,-4.034,-4.1432,-4.6184
8.8887,-4.0193,-3.9743,-4.6734
8.9273,-4.2119,-3.9527,-4.5013
8.966,-3.8798,-3.8329,-4.6185
9.0046,-3.8934,-3.9535,-4.3969
9.0433,-3.9734,-4.215,-4.5753
9.0819,-3.891,-4.5949,-4.6169
9.1206,-3.7441,-3.9202,-5.1977
9.1592,-3.9888,-4.2927,-4.8163
9.1978,-3.9758,-3.9517,-6.2181
9.2365,-3.9136,-4.3968,-4.5288
9.2751,-4.0778,-3.8767,-4.2657
9.3138,-3.9567,-4.1815,-4.4683
9.3524,-3.8629,-3.8279,-4.3861
9.3911,-3.8707,-4.0381,-4.5922
9.4297,-3.7142,-4.656,-4.4213
9.4684,-4.2881,-4.0095,-4.5881
9.507,-4.0072,-4.243,-4.9538
9.5457,-3.964,-4.508,-4.6672
9.5843,-3.8278,-3.7947,-4.8328
9.623,-4.1175,-4.1412,-4.5149
9.6616,-3.9284,-3.8548,-4.3317
9.7002,-4.0172,-4.0323,-4.2838
9.7389,-3.7907,-3.7902,-4.2526
9.7775,-3.987,-4.0257,-4.1388
9.8162,-4.0482,-3.9828,-4.3544
9.8548,-4.059,-4.3035,-4.176
9.8935,-3.9373,-3.8669,-4.1749
9.9321,-4.0665,-4.0437,-3.9885
9.9708,-3.7479,-3.5793,-3.638
10.0094,-3.9322,-4.0043,-3.2864
10.0481,-4.343,-4.1508,-3.9261
10.0867,-3.8496,-3.9193,-4.1943
10.1254,-4.1307,-3.8611,-4.5061
10.164,-3.9308,-3.879,-4.4714
10.2027,-3.8812,-4.0204,-4.5564
10.2413,-4.1955,-4.0768,-4.4385
10.2799,-4.049,-4.7643,-4.1948
10.3186,-3.8259,-3.8102,-4.4639
10.3572,-3.7618,-3.6644,-4.2918
10.3959,-3.9564,-4.8475,-4.2087
10.4345,-4.2813,-3.8157,-4.8896
10.4732,-3.9663,-4.3929,-4.7951
10.5118,-3.9465,-4.1552,-4.3184
10.5505,-4.0058,-3.953,-4.3101
10.5891,-3.8705,-3.8577,-5.2314
10.6278,-3.9017,-3.8978,-4.659
10.6664,-3.8826,-3.9562,-4.3764
10.7051,-4.1752,-4.8219,-5.1584
10.7437,-4.0813,-4.4137,-5.0156
10.7823,-4.1299,-3.8223,-4.3812
10.821,-3.9772,-4.2655,-4.8651
10.8596,-3.887,-3.6566,-4.312
10.8983,-3.9894,-4.2652,-4.8148
10.9369,-4.1698,-4.3565,-4.8435
10.9756,-3.9173,-4.1519,-4.8951
11.0142,-3.844,-3.9303,-4.4059
11.0529,-3.8022,-3.764,-4.5227
11.0915,-4.2921,-3.9746,-4.4817
11.1302,-4.0794,-4.4619,-5.1484
11.1688,-4.1636,-4.0754,-4.3755
11.2075,-3.8773,-3.9814,-4.4764
11.2461,-4.5981,-4.0728,-4.9426
11.2848,-4.0291,-4.0626,-4.7254
11.3234,-4.0964,-3.9849,-4.8783
11.362,-4.0647,-4.3128,-5.0194
11.4007,-3.9955,-3.9534,-4.5796
11.4393,-4.2734,-4.2158,-4.6026
11.478,-4.4192,-3.8073,-4.3575
11.5166,-3.9931,-4.3934,-5.1331
11.5553,-4.0964,-3.9303,-4.3972
11.5939,-4.019,-4.1264,-4.8851
11.6326,-4.2053,-4.0322,-4.681
11.6712,-4.0617,-4.3927,-4.7542
11.7099,-4.0698,-4.3292,-5.0806
11.7485,-4.1822,-4.159,-5.2172
11.7872,-4.1811,-4.0742,-4.895
11.8258,-3.8037,-3.7925,-4.4412
11.8644,-4.0615,-4.1814,-4.7731
11.9031,-4.3605,-3.7834,-4.6835
11.9417,-4.2188,-4.0184,-5.3496
11.9804,-3.8969,-3.9184,-4.4822
12.019,-4.0761,-4.017,-4.7161
12.0577,-4.1917,-4.1079,-4.7855
12.0963,-4.5821,-4.1571,-5.0025
12.135,-4.4678,-3.9868,-4.5434
12.1736,-4.1109,-4.1722,-4.6588
12.2123,-3.895,-4.2353,-5.3925
12.2509,-4.1439,-4.4857,-4.2739
12.2896,-4.009,-4.4567,-4.9618
12.3282,-4.132,-3.9301,-5.4152
12.3669,-3.9043,-3.8496,-4.3674
12.4055,-4.2603,-4.0111,-4.6531
12.4441,-3.9239,-3.921,-4.9062
12.4828,-3.972,-4.0136,-4.8572
12.5214,-3.8728,-3.84,-4.9869
12.5601,-4.3071,-3.8684,-4.5709
12.5987,-3.8752,-4.3614,-4.7064
12.6374,-4.1727,-3.971,-4.6206
12.676,-3.8526,-4.277,-5.4221
12.7147,-4.5984,-4.0748,-4.6127
12.7533,-3.9779,-4.2845,-4.8579
12.792,-4.6372,-3.9461,-4.9564
12.8306,-4.176,-3.9082,-4.6384
12.8693,-3.9284,-3.9325,-4.8959
12.9079,-4.1191,-4.2643,-4.7993
12.9465,-4.6685,-3.9035,-4.5561
12.9852,-4.285,-4.1849,-4.2939
13.0238,-4.2329,-3.9929,-4.5201
13.0625,-3.9534,-3.8596,-4.6232
13.1011,-4.1007,-4.3211,-4.3471
13.1398,-4.0356,-4.2415,-4.438
13.1784,-4.1533,-4.2687,-4.5238
13.2171,-4.0506,-4.0682,-4.9386
13.2557,-4.0138,-4.0818,-5.2176
13.2944,-4.1737,-4.3869,-4.7182
13.333,-4.1378,-4.1348,-4.561
13.3717,-3.9398,-4.7329,-4.2696
13.4103,-3.7953,-3.8236,-4.7517
13.449,-4.4308,-4.2726,-4.482
13.4876,-3.9518,-4.2241,-4.7794
13.5262,-4.1323,-3.824,-4.7743
13.5649,-3.7521,-3.7169,-5.0446
13.6035,-4.1976,-4.2345,-4.9468
13.6422,-4.4338,-3.997,-4.1826
13.6808,-4.1658,-4.5504,-4.8319
13.7195,-4.4015,-4.2041,-4.5511
13.7581,-4.901,-3.9916,-4.8523
13.7968,-4.3928,-4.172,-4.7306
13.8354,-4.1274,-4.9245,-4.6194
13.8741,-4.0359,-4.3317,-4.8531
13.9127,-4.1779,-4.0783,-4.5808
13.9514,-3.9251,-4.0799,-4.4887
13.99,-4.1307,-4.1522,-4.3215
14.0286,-4.1445,-3.7103,-4.7159
14.0673,-4.1245,-3.9994,-4.3704
14.1059,-3.9161,-4.1392,-4.6158
14.1446,-4.0509,-4.1297,-4.9552
14.1832,-4.1206,-3.8179,-4.7281
14.2219,-4.1042,-4.1729,-4.4782
14.2605,-4.0031,-4.0361,-4.4502
14.2992,-3.9459,-3.9155,-4.6131
14.3378,-3.9704,-4.1331,-4.273
14.3765,-4.0005,-4.4817,-4.5494
14.4151,-4.1686,-3.9209,-4.1853
14.4538,-4.1006,-4.558,-4.5785
14.4924,-3.9146,-3.9331,-4.9093
14.5311,-4.0473,-4.09,-4.6462
14.5697,-3.9733,-3.8461,-4.9839
14.6083,-4.049,-4.2149,-4.2494
14.647,-3.987,-3.9761,-4.6882
14.6856,-4.1033,-4.1482,-4.6745
14.7243,-4.077,-4.4223,-4.9787
14.7629,-3.9546,-4.0143,-4.6457
14.8016,-4.0447,-4.2903,-4.4323
14.8402,-4.3052,-3.9927,-4.4876
14.8789,-4.0758,-4.6821,-4.5771
14.9175,-4.1238,-3.775,-4.2276
14.9562,-4.3466,-4.0685,-4.6384
14.9948,-4.2159,-3.8229,-4.6437
15.0335,-4.0861,-4.1717,-4.8204
15.0721,-4.1486,-4.2115,-4.5234
15.1107,-4.4817,-3.9069,-4.4373
15.1494,-4.0286,-3.9389,-4.3806
15.188,-4.162,-4.053,-4.3506
15.2267,-4.2826,-4.4353,-4.4345
15.2653,-4.2058,-3.947,-4.4491
15.304,-4.1018,-4.5621,-4.3686
15.3426,-4.0446,-3.9533,-4.2942
15.3813,-4.1798,-4.284,-4.4253
15.4199,-4.1784,-3.8853,-4.7232
15.4586,-4.1974,-4.0923,-4.6253
15.4972,-4.4343,-3.8369,-4.523
15.5359,-4.3076,-4.469,-4.7337
15.5745,-4.2187,-4.1979,-4.6814
15.6132,-4.3327,-4.1405,-4.4729
15.6518,-4.4079,-3.7216,-4.7651
15.6904,-4.114,-4.1008,-4.8037
15.7291,-4.1907,-4.3367,-4.5348
15.7677,-3.9133,-3.9764,-4.5722
15.8064,-3.9671,-4.0359,-5.0782
15.845,-4.5927,-3.9682,-4.9886
15.8837,-4.5676,-4.1381,-4.4588
15.9223,-4.5945,-3.8384,-4.7672
15.961,-4.045,-3.9152,-4.7751
15.9996,-3.8584,-3.9171,-4.4471
16.0383,-4.1456,-4.3144,-4.3896
16.0769,-4.1475,-4.6856,-4.2259
16.1156,-3.8428,-3.7592,-4.9384
16.1542,-4.1542,-4.6123,-4.8155
16.1928,-3.9491,-4.1767,-4.8035
16.2315,-4.4665,-3.9927,-4.5029
16.2701,-4.3364,-4.0311,-4.7216
16.3088,-4.5674,-3.9226,-4.8874
16.3474,-4.6231,-4.0867,-4.8121
16.3861,-3.896,-3.9153,-4.5558
16.4247,-3.8982,-3.9517,-4.6217
16.4634,-4.3645,-3.709,-4.568
16.502,-4.4382,-4.3784,-4.7696
16.5407,-4.4965,-4.0298,-4.5468
16.5793,-4.3933,-3.7921,-4.6174
16.618,-4.2924,-4.6313,-4.9912
16.6566,-4.0443,-4.1969,-4.5865
16.6953,-4.0748,-4.0254,-4.9685
16.7339,-4.1845,-4.9801,-4.6699
16.7725,-4.0937,-4.1549,-4.5316
16.8112,-3.926,-3.8315,-4.4486
16.8498,-4.8091,-4.0256,-4.5709
16.8885,-4.3826,-4.3005,-4.4046
16.9271,-3.9607,-3.9516,-5.7804
16.9658,-3.9899,-4.1245,-4.7683
17.0044,-4.1867,-3.7747,-4.3404
17.0431,-3.7776,-3.7761,-4.5495
17.0817,-4.8135,-4.0414,-5.096
17.1204,-3.9322,-3.8128,-4.4658
17.159,-4.1026,-3.7268,-5.241
17.1977,-3.9175,-3.8011,-4.581
17.2363,-4.1768,-3.9563,-4.3898
17.2749,-4.321,-4.4686,-4.517
17.3136,-4.0618,-3.991,-4.3148
17.3522,-3.8355,-3.7105,-4.3744
17.3909,-4.4016,-4.5335,-4.9012
17.4295,-4.0539,-3.9199,-4.5055
17.4682,-4.1913,-4.085,-4.5371
17.5068,-4.2997,-3.7393,-4.4938
17.5455,-4.2422,-4.6732,-4.7619
17.5841,-4.3017,-4.3166,-4.5571
17.6228,-5.0628,-3.6876,-4.4329
17.6614,-4.1293,-3.8684,-4.5446
17.7001,-3.952,-3.738,-4.487
17.7387,-4.0655,-4.4807,-4.6886
17.7774,-3.9466,-3.8509,-4.6805
17.816,-4.178,-3.7574,-4.4874
17.8546,-4.0101,-3.9317,-4.5194
17.8933,-4.1078,-4.1619,-5.0203
17.9319,-4.6147,-3.8834,-5.4838
17.9706,-4.4252,-3.8529,-5.0886
18.0092,-4.6519,-3.7715,-4.8689
18.0479,-3.8975,-3.5724,-4.5276
18.0865,-3.865,-3.7987,-4.4784
18.1252,-4.2283,-4.1744,-4.393
18.1638,-4.353,-4.2732,-4.4069
18.2025,-3.9666,-3.8541,-4.3641
18.2411,-4.0779,-4.1989,-4.3333
18.2798,-4.0393,-3.8979,-4.3285
18.3184,-4.8506,-3.7563,-4.6885
18.357,-4.5997,-4.0496,-4.7655
18.3957,-3.9839,-4.1167,-4.6286
18.4343,-4.0101,-3.9091,-4.7401
18.473,-4.1473,-4.3313,-4.9526
18.5116,-3.9651,-3.8595,-5.0014
18.5503,-5.165,-3.8857,-4.6775
18.5889,-4.3473,-3.9822,-4.5229
18.6276,-4.226,-4.0365,-4.8649
18.6662,-4.0419,-4.2085,-4.8389
18.7049,-4.483,-3.796,-4.5638
18.7435,-4.0988,-3.8276,-4.727
18.7822,-3.8186,-3.6435,-5.0883
18.8208,-3.9664,-3.7324,-4.5237
18.8595,-4.1691,-3.7718,-4.6648
18.8981,-4.1949,-3.8723,-4.6131
18.9367,-4.4602,-4.1337,-4.5535
18.9754,-4.0484,-3.7146,-4.657
19.014,-4.3168,-3.5958,-4.8796
19.0527,-4.0618,-4.0042,-4.4644
19.0913,-4.0252,-3.7284,-4.4985
19.13,-4.1025,-3.6754,-4.4066
19.1686,-4.0274,-3.8462,-5.0624
19.2073,-4.2759,-3.7712,-4.4364
19.2459,-4.3189,-4.5193,-4.4876
19.2846,-4.1781,-4.274,-4.9496
19.3232,-3.8046,-3.6004,-4.5664
19.3619,-3.843,-3.5559,-4.4252
19.4005,-3.79,-3.6468,-4.4827
19.4391,-4.4603,-4.0398,-4.4622
19.4778,-3.9507,-3.8547,-4.7519
19.5164,-4.4827,-3.8854,-4.8307
19.5551,-4.1358,-4.0765,-4.6143
19.5937,-4.269,-3.818,-4.4196
19.6324,-4.3881,-3.6632,-4.3568
19.671,-4.1578,-3.8536,-4.4667
19.7097,-3.8869,-3.6895,-4.3723
19.7483,-4.0871,-4.0307,-4.8874
19.787,-4.2081,-4.3368,-4.6011
19.8256,-4.3166,-4.622,-4.8393
19.8643,-4.3436,-4.7145,-4.2484
19.9029,-4.0769,-3.684,-4.1624
19.9415,-4.3767,-4.068,-3.9348
19.9802,-3.5094,-3.1207,-3.4314
20.0188,-4.0865,-4.1514,-3.6901
20.0575,-3.8219,-3.5392,-3.9352
20.0961,-3.7428,-3.461,-4.174
20.1348,-4.1642,-3.7841,-4.329
20.1734,-3.9636,-4.0812,-4.3526
20.2121,-4.1833,-4.2519,-4.8158
20.2507,-3.7458,-3.5177,-4.9076
20.2894,-3.9762,-3.9495,-4.8939
20.328,-4.0936,-3.7778,-4.6093
20.3667,-3.9269,-3.6998,-4.5999
20.4053,-4.0258,-3.974,-4.5761
20.444,-4.3231,-3.7093,-4.9598
20.4826,-4.5725,-3.7616,-4.4831
20.5212,-3.9462,-3.9172,-4.4387
20.5599,-4.1121,-4.1764,-4.4863
20.5985,-3.9294,-3.7183,-4.561
20.6372,-4.0653,-3.7949,-4.7188
20.6758,-4.0077,-3.7283,-4.7019
20.7145,-3.8012,-3.5385,-4.7765
20.7531,-4.5325,-3.6437,-4.5406
20.7918,-4.0192,-3.9055,-5.0753
20.8304,-4.1013,-3.9183,-4.6855
20.8691,-4.1375,-4.1383,-4.515
20.9077,-4.1105,-3.9171,-5.2516
20.9464,-3.7277,-3.4959,-4.3358
20.985,-3.9128,-3.5848,-4.7883
21.0236,-4.0234,-4.0309,-4.6413
21.0623,-4.3034,-4.0887,-4.8225
21.1009,-4.7586,-3.8708,-4.9092
21.1396,-3.6593,-3.4307,-4.7248
21.1782,-4.6675,-4.1045,-4.8483
21.2169,-3.9891,-3.7354,-4.473
21.2555,-4.178,-3.9019,-4.6432
21.2942,-4.5475,-4.0508,-4.5079
21.3328,-3.7704,-3.5271,-4.7773
21.3715,-3.955,-3.6719,-4.3122
21.4101,-4.4415,-3.7561,-4.6613
21.4488,-4.4543,-3.9615,-4.4051
21.4874,-3.8377,-3.4656,-4.7666
21.5261,-3.9,-3.7354,-4.3472
21.5647,-3.9722,-3.8415,-4.5428
21.6033,-4.1365,-3.8483,-4.5509
21.642,-4.106,-3.5643,-4.9565
21.6806,-4.617,-3.9145,-5.0685
21.7193,-4.152,-4.1968,-4.3067
21.7579,-3.7512,-3.3631,-4.5132
21.7966,-3.9534,-3.3887,-5.3601
21.8352,-4.3746,-4.1003,-4.5471
21.8739,-3.8811,-3.6783,-4.475
21.9125,-4.0312,-4.1149,-4.8607
21.9512,-4.4579,-3.7269,-4.9483
21.9898,-3.79,-3.4679,-4.5194
22.0285,-3.9462,-3.6806,-4.7915
22.0671,-3.7744,-3.4113,-4.4487
22.1057,-3.8563,-3.7384,-4.3522
22.1444,-4.244,-3.6716,-4.499
22.183,-4.5703,-3.7018,-4.4707
22.2217,-4.5166,-3.7062,-4.6285
22.2603,-4.3384,-4.0061,-4.3559
22.299,-4.0526,-3.5933,-4.6848
22.3376,-4.2021,-3.6628,-4.2294
22.3763,-4.0671,-3.5612,-4.4947
22.4149,-4.3517,-4.1177,-4.7342
22.4536,-4.0434,-3.4708,-4.5552
22.4922,-4.3182,-3.6501,-4.5761
22.5309,-3.7294,-3.4369,-4.6565
22.5695,-4.6084,-3.9658,-4.5399
22.6082,-4.7838,-4.1732,-4.5601
22.6468,-3.9116,-3.7256,-4.4983
22.6854,-4.1711,-4.1032,-4.4465
22.7241,-3.9658,-3.7641,-4.4219
22.7627,-3.797,-3.5575,-5.1299
22.8014,-4.0106,-3.8232,-4.3947
22.84,-3.8868,-3.5961,-4.4017
22.8787,-4.3801,-4.2868,-4.3703
22.9173,-4.112,-4.1613,-4.2977
22.956,-3.875,-3.6324,-4.7526
22.9946,-4.0561,-3.5763,-4.2986
23.0333,-3.9111,-3.4818,-5.3795
23.0719,-3.7884,-3.5801,-4.6402
23.1106,-3.8805,-3.7151,-4.7201
23.1492,-4.3034,-4.0892,-4.967
23.1878,-4.1297,-4.2169,-4.4025
23.2265,-3.8781,-3.5866,-4.1777
23.2651,-4.6362,-3.8294,-4.5644
23.3038,-4.1984,-3.5411,-4.4153
23.3424,-4.2738,-3.8093,-4.505
23.3811,-4.1764,-4.1884,-4.5814
23.4197,-4.2915,-3.8396,-4.6201
23.4584,-4.3198,-4.6324,-4.6237
23.497,-3.7666,-3.5825,-4.891
23.5357,-4.0532,-3.8827,-4.692
23.5743,-4.1055,-4.2161,-4.4292
23.613,-4.5133,-4.7463,-4.5478
23.6516,-4.5362,-3.8818,-4.4606
23.6903,-4.3865,-3.8616,-4.6347
23.7289,-4.6883,-3.9109,-4.5346
23.7675,-4.2506,-3.9573,-4.9308
23.8062,-3.7907,-3.4874,-4.8239
23.8448,-4.2513,-3.6589,-4.8888
23.8835,-3.9287,-3.5447,-4.3792
23.9221,-3.8835,-3.547,-4.3918
23.9608,-4.0302,-4.1818,-4.3934
23.9994,-4.4189,-4.6887,-4.1642
24.0381,-3.9784,-3.6379,-4.7428
24.0767,-4.2358,-3.7953,-4.6351
24.1154,-4.0108,-3.8441,-4.2907
24.154,-4.0472,-3.9275,-4.6993
24.1927,-3.8458,-3.6628,-4.9099
24.2313,-4.2159,-4.241,-5.8566
24.2699,-4.3863,-3.954,-4.7917
24.3086,-4.0425,-3.6389,-4.2818
24.3472,-4.0904,-3.7659,-4.4124
24.3859,-3.9798,-3.7547,-4.6797
24.4245,-3.7559,-3.4891,-4.5673
24.4632,-4.2119,-3.7207,-4.4669
24.5018,-4.3685,-3.7757,-4.719
24.5405,-3.9031,-3.6176,-4.5663
24.5791,-4.1577,-3.6877,-4.6283
24.6178,-4.1874,-3.7687,-4.169
24.6564,-4.346,-3.7371,-4.7018
24.6951,-3.9955,-3.497,-4.3329
24.7337,-4.166,-3.6175,-4.6296
24.7724,-3.9065,-3.7036,-4.2607
24.811,-5.0121,-3.892,-4.8604
24.8496,-4.3747,-3.9892,-5.0277
24.8883,-4.0579,-3.8103,-4.1674
24.9269,-4.0007,-3.6547,-4.9129
24.9656,-4.0413,-3.7864,-4.3735
25.0042,-4.4049,-3.8433,-4.697
25.0429,-3.9555,-3.4082,-4.3325
25.0815,-4.3197,-4.1303,-4.3751
25.1202,-4.6645,-4.1723,-4.3262
25.1588,-4.2844,-3.9468,-4.6239
25.1975,-4.2622,-3.7005,-4.6797
25.2361,-4.4433,-3.7482,-4.7486
25.2748,-4.2431,-4.1603,-4.5521
25.3134,-4.187,-3.839,-4.7797
25.352,-3.8261,-3.3616,-4.3728
25.3907,-4.8123,-3.7428,-5.1069
25.4293,-3.9383,-3.7029,-4.6583
25.468,-4.0043,-3.6663,-4.3992
25.5066,-4.1829,-3.6656,-4.612
25.5453,-4.4192,-3.6287,-4.4447
25.5839,-3.9852,-3.6739,-4.6385
25.6226,-4.1613,-4.2408,-4.5711
25.6612,-3.9881,-3.7892,-4.5191
25.6999,-3.7856,-3.5329,-4.4614
25.7385,-3.9224,-3.8208,-4.2814
25.7772,-4.3344,-4.2987,-4.6715
25.8158,-3.9533,-3.6541,-4.4461
25.8545,-3.7236,-3.4614,-4.8638
25.8931,-4.2829,-3.7746,-4.9998
25.9317,-3.6928,-3.4471,-4.4405
25.9704,-3.8765,-3.5128,-4.583
26.009,-4.2624,-3.7313,-4.1112
26.0477,-3.9707,-3.6333,-4.4232
26.0863,-4.9438,-3.9662,-4.6363
26.125,-4.8348,-4.0356,-4.8183
26.1636,-4.7147,-3.8837,-4.4666
26.2023,-4.4941,-3.8838,-4.5885
26.2409,-4.0515,-3.8204,-4.4684
26.2796,-3.9859,-3.6307,-4.2872
26.3182,-3.8531,-3.6394,-4.5588
26.3569,-3.937,-3.7608,-4.3486
26.3955,-3.8394,-3.5142,-4.1334
26.4341,-3.7782,-3.5477,-4.2436
26.4728,-4.7859,-4.2347,-4.2378
26.5114,-4.2004,-3.6943,-4.5958
26.5501,-3.9528,-3.7409,-4.0359
26.5887,-3.9442,-3.7554,-4.3454
26.6274,-4.0171,-3.6692,-4.1379
26.666,-3.8462,-3.6039,-4.2193
26.7047,-3.9676,-3.7091,-4.2964
26.7433,-3.8865,-3.7791,-4.2059
26.782,-4.7766,-3.9504,-4.2059
26.8206,-5.0417,-4.0871,-3.824
26.8593,-3.9456,-3.6185,-4.4961
26.8979,-4.4884,-3.9441,-3.8907
26.9366,-4.1616,-3.9728,-4.2029
26.9752,-3.8691,-3.5646,-3.7399
27.0138,-5.1279,-3.9257,-4.2179
27.0525,-4.1927,-3.8884,-4.2461
27.0911,-4.2839,-3.9955,-3.9752
27.1298,-4.1513,-3.5994,-3.6732
27.1684,-3.6248,-3.2316,-3.666
27.2071,-3.8378,-3.5152,-3.806
27.2457,-3.9258,-3.636,-4.5048
27.2844,-4.071,-3.6888,-4.1387
27.323,-4.0561,-3.5914,-3.9781
27.3617,-4.3413,-3.8152,-4.2832
27.4003,-3.8439,-3.5649,-4.644
27.439,-4.392,-3.7348,-3.7793
27.4776,-3.8993,-3.5676,-4.0029
27.5162,-4.5378,-3.9376,-3.9305
27.5549,-3.9156,-3.7113,-3.7089
27.5935,-4.9121,-3.7763,-3.9746
27.6322,-4.0996,-3.7429,-4.2104
27.6708,-4.2509,-4.1666,-4.356
27.7095,-4.2065,-3.6522,-3.8261
27.7481,-4.7003,-3.8857,-4.2644
27.7868,-3.8418,-3.5079,-4.043
27.8254,-3.9921,-3.5072,-3.743
27.8641,-4.71,-4.0362,-3.8072
27.9027,-4.1361,-3.9194,-4.1251
27.9414,-4.2921,-3.7034,-5.0281
27.98,-4.178,-3.744,-4.0247
28.0187,-4.1085,-4.0884,-5.3691
28.0573,-3.8008,-3.5769,-3.8238
28.0959,-4.1818,-3.7766,-4.3179
28.1346,-4.8926,-4.031,-3.8382
28.1732,-4.2413,-3.7768,-4.2306
28.2119,-4.0525,-3.9194,-3.8825
28.2505,-4.1787,-4.2043,-4.4232
28.2892,-4.0381,-3.6471,-3.9889
28.3278,-4.1803,-3.8754,-4.0643
28.3665,-4.0267,-3.7782,-4.1946
28.4051,-4.8814,-3.9499,-4.2281
28.4438,-3.7764,-3.4359,-3.932
28.4824,-4.778,-4.2808,-4.2682
28.5211,-4.2489,-3.7482,-4.0192
28.5597,-4.0663,-3.9353,-4.1975
28.5983,-3.859,-3.6879,-4.1998
28.637,-4.1305,-4.0787,-4.1289
28.6756,-4.0478,-3.829,-4.4851
28.7143,-4.0639,-3.6558,-4.52
28.7529,-3.9175,-3.6575,-4.0767
28.7916,-4.4828,-4.4506,-4.8643
28.8302,-4.2499,-3.986,-4.7495
28.8689,-4.1521,-3.8208,-4.3263
28.9075,-4.7366,-4.2551,-4.6599
28.9462,-4.1173,-3.9973,-4.2981
28.9848,-4.1569,-3.9776,-4.2479
29.0235,-4.3495,-3.9142,-4.1349
29.0621,-3.802,-3.5437,-3.9893
29.1007,-4.0234,-3.7679,-4.3734
29.1394,-3.8999,-3.5404,-3.9814
29.178,-4.0596,-3.6917,-4.1254
29.2167,-4.1943,-3.7423,-4.4298
29.2553,-4.0399,-3.6486,-4.7689
29.294,-4.0775,-4.0143,-4.2969
29.3326,-3.8866,-3.4338,-3.8929
29.3713,-3.9306,-3.6971,-4.7644
29.4099,-4.231,-4.0125,-4.0834
29.4486,-3.9764,-3.512,-4.4524
29.4872,-4.2051,-3.7518,-4.6663
29.5259,-4.8531,-3.943,-3.9495
29.5645,-4.1648,-3.8102,-4.7433
29.6032,-4.1593,-3.8626,-4.033
29.6418,-3.9358,-3.7119,-4.5434
29.6804,-3.991,-3.82,-4.1952
29.7191,-4.1177,-3.6767,-4.1382
29.7577,-4.3074,-4.4668,-4.2321
29.7964,-4.0334,-3.8119,-4.3768
29.835,-4.1883,-3.8819,-3.9898
29.8737,-4.3508,-3.6714,-4.0682
29.9123,-4.1344,-3.9333,-4.4046
29.951,-3.9163,-3.6323,-3.8638
29.9896,-3.2624,-2.9186,-3.2657
30.0283,-3.7616,-3.4796,-4.035
30.0669,-3.9446,-3.6076,-4.2525
30.1056,-4.1381,-4.0507,-4.4515
30.1442,-4.0983,-4.0468,-4.3083
30.1828,-3.9452,-3.7887,-4.6065
30.2215,-3.9501,-3.848,-4.4192
30.2601,-4.3659,-4.1847,-4.8268
30.2988,-4.1222,-3.8374,-4.6983
30.3374,-4.2328,-3.8492,-4.7906
30.3761,-4.1719,-3.9171,-4.441
30.4147,-4.1895,-3.8121,-4.6276
30.4534,-4.1803,-4.3962,-4.7581
30.492,-4.3901,-4.5091,-4.2912
30.5307,-4.1023,-3.9545,-4.5178
30.5693,-4.0532,-3.9921,-4.8623
30.608,-3.9751,-3.8172,-4.6413
30.6466,-4.294,-4.299,-4.2914
30.6853,-4.3702,-4.5661,-4.4382
30.7239,-4.341,-4.0463,-5.0623
30.7625,-4.118,-3.8094,-4.1938
30.8012,-4.7327,-3.9735,-4.3699
30.8398,-4.1366,-3.7269,-4.5714
30.8785,-4.119,-3.8433,-4.6833
30.9171,-4.0328,-4.0185,-4.7104
30.9558,-3.9848,-3.8268,-5.2935
30.9944,-4.1175,-4.1843,-4.6771
31.0331,-4.4319,-3.9577,-4.7069
31.0717,-4.3221,-4.114,-4.6825
31.1104,-4.0478,-3.9129,-4.2288
31.149,-4.2375,-4.0011,-4.7209
31.1877,-4.232,-4.1336,-4.7366
31.2263,-4.065,-3.8646,-4.1622
31.2649,-4.1448,-4.0082,-4.5659
31.3036,-4.3982,-4.6174,-5.012
31.3422,-4.6927,-3.9929,-4.8571
31.3809,-4.0895,-3.7079,-4.7635
31.4195,-4.0546,-3.9743,-4.7562
31.4582,-4.1695,-3.6782,-4.154
31.4968,-4.2758,-3.7332,-4.4446
31.5355,-4.0473,-3.8662,-4.274
31.5741,-4.1863,-3.8839,-4.3785
31.6128,-3.9827,-3.7696,-4.1714
31.6514,-4.7114,-4.0675,-4.6743
31.6901,-4.1357,-3.8607,-4.4389
31.7287,-4.2201,-4.0726,-4.8036
31.7674,-4.8407,-3.9044,-4.5262
31.806,-4.124,-4.2924,-4.6954
31.8446,-3.9889,-3.923,-4.3016
31.8833,-4.1102,-3.7503,-4.6107
31.9219,-4.1576,-3.8433,-4.8335
31.9606,-4.5612,-4.3449,-4.4114
31.9992,-4.8584,-4.0605,-4.2703
32.0379,-4.2566,-3.669,-4.8075
32.0765,-4.0835,-3.8266,-4.4512
32.1152,-4.45,-3.8731,-4.3164
32.1538,-4.4425,-3.8692,-4.4455
32.1925,-4.2038,-3.9111,-4.5454
32.2311,-4.1364,-3.6761,-4.8877
32.2698,-4.3603,-3.829,-4.6157
32.3084,-4.0694,-3.7041,-4.4512
32.347,-4.1646,-3.8723,-4.3366
32.3857,-4.5049,-4.0192,-4.4204
32.4243,-4.5231,-3.9686,-4.6959
32.463,-4.1896,-4.1971,-4.4338
32.5016,-3.9839,-3.8752,-4.5287
32.5403,-4.1668,-4.0747,-4.2154
32.5789,-4.1658,-3.8453,-4.8931
32.6176,-4.0482,-3.8102,-4.6803
32.6562,-4.1456,-3.9241,-4.1512
32.6949,-4.4478,-4.0956,-4.4789
32.7335,-4.5591,-3.758,-4.6545
32.7722,-4.9837,-4.358,-4.3127
32.8108,-4.4003,-3.9208,-4.3644
32.8495,-4.1927,-4.0015,-4.1128
32.8881,-4.1427,-4.0241,-4.1442
32.9267,-4.1926,-3.8424,-4.4093
32.9654,-3.9915,-3.7027,-4.4762
33.004,-4.5909,-3.9266,-5.2053
33.0427,-4.4693,-4.108,-4.5866
33.0813,-4.0857,-4.0808,-4.5499
33.12,-4.8332,-4.1219,-4.292
33.1586,-4.8578,-4.0556,-4.6365
33.1973,-3.9142,-3.5164,-3.9229
33.2359,-3.9963,-3.645,-4.038
33.2746,-4.6029,-4.1032,-4.2601
33.3132,-4.0892,-3.9838,-4.1712
33.3519,-4.1545,-3.9498,-4.0807
33.3905,-4.5958,-4.0096,-4.1071
33.4291,-4.097,-4.0335,-4.1923
33.4678,-4.6289,-4.0869,-4.4909
33.5064,-4.5513,-3.9965,-4.4121
33.5451,-4.627,-4.0444,-4.1148
33.5837,-4.0996,-3.707,-4.0651
33.6224,-4.3026,-3.8735,-4.0097
33.661,-4.3575,-3.8669,-4.0523
33.6997,-4.6336,-4.0769,-4.6568
33.7383,-5.0341,-3.9426,-4.1984
33.777,-4.2752,-4.0868,-4.6886
33.8156,-4.45,-4.5361,-4.4386
33.8543,-4.8344,-4.0225,-4.1023
33.8929,-4.0472,-3.6453,-4.404
33.9316,-4.0944,-4.1135,-3.9836
33.9702,-4.3065,-3.9894,-4.4828
34.0088,-4.3447,-4.3781,-4.1856
34.0475,-4.8426,-4.3405,-4.3964
34.0861,-4.0678,-3.7538,-3.8042
34.1248,-4.0672,-3.7587,-4.5008
34.1634,-4.1715,-3.7635,-4.0745
34.2021,-4.0882,-3.8182,-4.3014
34.2407,-4.654,-4.2959,-3.9546
34.2794,-4.2547,-4.0041,-4.2169
34.318,-4.8468,-4.2149,-4.3616
34.3567,-4.15,-3.8958,-4.1601
34.3953,-4.1047,-3.74,-4.1661
34.434,-4.1858,-3.7471,-4.2207
34.4726,-4.1991,-3.8701,-4.7757
34.5112,-4.457,-4.3656,-4.3918
34.5499,-4.4067,-4.5819,-4.1713
34.5885,-4.2696,-4.3064,-4.4231
34.6272,-4.2887,-3.9204,-4.2135
34.6658,-4.0553,-3.6614,-3.9427
34.7045,-4.6081,-4.1526,-3.8462
34.7431,-3.9136,-3.6839,-4.8454
34.7818,-4.1334,-4.2378,-3.8862
34.8204,-4.4271,-4.2181,-4.2571
34.8591,-4.4597,-3.8644,-4.2623
34.8977,-4.2055,-3.8239,-3.9851
34.9364,-4.6044,-3.8482,-4.655
34.975,-4.2014,-3.6735,-4.3437
35.0137,-4.1094,-3.9179,-4.2696
35.0523,-4.2466,-3.8094,-4.5497
35.0909,-5.3178,-4.2486,-3.9512
35.1296,-4.0541,-4.0705,-4.0602
35.1682,-3.7772,-3.3978,-3.8214
35.2069,-4.2828,-4.1067,-4.2218
35.2455,-4.0857,-3.8707,-4.7683
35.2842,-3.8016,-3.5092,-3.9329
35.3228,-4.2499,-3.7469,-4.3891
35.3615,-4.133,-3.7059,-4.1094
35.4001,-3.9321,-3.6171,-4.6683
35.4388,-5.8771,-4.5587,-4.0803
35.4774,-4.101,-3.7875,-4.4892
35.5161,-4.3943,-3.9764,-4.6741
35.5547,-4.4954,-3.8443,-4.1963
35.5933,-4.3961,-3.7712,-4.4591
35.632,-4.0898,-3.6834,-4.2863
35.6706,-4.0481,-3.5991,-4.0864
35.7093,-3.8976,-3.4561,-4.3755
35.7479,-3.8946,-3.437,-4.6773
35.7866,-4.23,-3.7828,-4.3519
35.8252,-4.2871,-3.9956,-4.4845
35.8639,-3.8871,-3.5183,-4.5674
35.9025,-4.841,-3.9803,-4.6018
35.9412,-4.3666,-3.7176,-5.0505
35.9798,-4.5928,-4.1419,-4.8743
36.0185,-4.15,-3.9718,-4.0587
36.0571,-4.1961,-3.9035,-4.2553
36.0958,-4.45,-4.8643,-4.3631
36.1344,-4.4584,-4.4035,-4.5737
36.173,-4.0385,-3.5473,-4.4368
36.2117,-4.1841,-3.7808,-4.2553
36.2503,-4.5455,-3.9584,-4.1881
36.289,-4.1784,-3.6999,-4.2946
36.3276,-3.9056,-3.5333,-5.1603
36.3663,-3.9859,-3.7146,-4.3225
36.4049,-4.442,-3.8018,-4.8681
36.4436,-4.1916,-3.7633,-4.5087
36.4822,-4.0901,-3.7537,-4.7102
36.5209,-4.3693,-4.2286,-4.7484
36.5595,-3.9403,-3.6962,-4.8057
36.5982,-4.1652,-3.8661,-4.4133
36.6368,-4.2735,-3.9698,-5.1976
36.6754,-4.1149,-3.8582,-4.8172
36.7141,-3.918,-3.6524,-4.4602
36.7527,-4.1049,-3.8145,-4.5356
36.7914,-3.9365,-3.6059,-4.8681
36.83,-4.0164,-3.7022,-4.666
36.8687,-4.1835,-3.9593,-4.6033
36.9073,-4.0139,-3.689,-5.2389
36.946,-4.1519,-3.7738,-4.7826
36.9846,-4.0739,-3.7322,-4.5422
37.0233,-3.7768,-3.5307,-4.5289
37.0619,-3.932,-3.675,-4.7113
37.1006,-4.1308,-3.7973,-4.8642
37.1392,-3.7558,-3.4948,-4.5214
37.1779,-4.506,-4.0334,-4.4074
37.2165,-4.366,-4.6126,-4.673
37.2551,-4.242,-4.1662,-4.8025
37.2938,-4.2934,-4.0261,-4.6265
37.3324,-4.1822,-3.8514,-4.2957
37.3711,-4.0562,-3.9072,-4.84
37.4097,-4.0004,-3.7428,-4.584
37.4484,-4.042,-3.7896,-4.4382
37.487,-4.3564,-3.763,-4.4286
37.5257,-4.1063,-3.6982,-4.3112
37.5643,-4.0526,-3.7485,-4.2452
37.603,-4.3613,-3.7844,-4.2856
37.6416,-3.9731,-3.6941,-4.2541
37.6803,-3.9772,-3.7174,-4.5232
37.7189,-4.0402,-3.8545,-4.5103
37.7575,-4.3549,-4.0948,-4.7652
37.7962,-4.2999,-4.0385,-4.563
37.8348,-4.3434,-4.9349,-4.5345
37.8735,-3.9487,-3.7723,-4.4953
37.9121,-4.019,-3.6651,-4.6625
37.9508,-4.1095,-3.9821,-4.3532
37.9894,-3.731,-3.3916,-4.3169
38.0281,-4.3401,-3.9731,-4.2161
38.0667,-4.1502,-3.7137,-4.123
38.1054,-3.9587,-3.7398,-4.1121
38.144,-4.3534,-4.094,-4.1601
38.1827,-4.3412,-4.1433,-4.3705
38.2213,-4.0481,-3.5685,-4.4698
38.26,-4.6356,-4.3778,-5.3676
38.2986,-4.487,-3.9114,-4.0596
38.3372,-4.1542,-4.1071,-4.756
38.3759,-4.0467,-3.9268,-4.2959
38.4145,-3.9033,-3.6164,-4.5004
38.4532,-4.1177,-3.6634,-4.4992
38.4918,-4.8842,-4.2164,-4.2164
38.5305,-4.281,-4.0982,-4.4207
38.5691,-4.2746,-3.9552,-4.558
38.6078,-4.1347,-3.9133,-4.2296
38.6464,-4.2155,-3.9304,-4.4907
38.6851,-4.2435,-4.216,-4.7766
38.7237,-4.8789,-4.0334,-4.3943
38.7624,-4.8719,-4.3799,-4.3421
38.801,-4.5648,-4.0247,-4.1725
38.8396,-4.0666,-3.6578,-4.35
38.8783,-4.2633,-4.3221,-4.829
38.9169,-4.0085,-3.7759,-4.3975
38.9556,-4.4187,-3.8249,-5.0074
38.9942,-5.0252,-4.0033,-4.9099
39.0329,-4.6292,-5.1335,-4.1843
39.0715,-4.472,-3.9565,-4.2284
39.1102,-4.1294,-4.0081,-4.5214
39.1488,-4.6207,-4.2954,-4.3933
39.1875,-4.2912,-4.3843,-4.5243
39.2261,-4.191,-3.9867,-4.3913
39.2648,-4.3251,-3.769,-4.373
39.3034,-4.1267,-3.7588,-4.2787
39.342,-4.1347,-3.8761,-4.6336
39.3807,-4.3923,-4.1667,-4.4794
39.4193,-4.4135,-4.1588,-4.2532
39.458,-5.0582,-4.588,-4.3489
39.4966,-4.6305,-4.351,-4.2908
39.5353,-4.7629,-4.0151,-4.2926
39.5739,-4.586,-4.0075,-4.5323
39.6126,-4.1681,-4.0822,-5.0791
39.6512,-4.8141,-4.1177,-4.7958
39.6899,-4.1029,-3.9845,-4.5702
39.7285,-4.154,-3.9574,-4.4326
39.7672,-4.5267,-4.2744,-4.2437
39.8058,-4.1346,-3.8322,-4.5413
39.8445,-4.0607,-3.8617,-4.4684
39.8831,-4.1822,-3.7284,-4.5013
39.9217,-4.4508,-3.8736,-4.432
39.9604,-4.0251,-3.7478,-3.8659
39.999,-3.8495,-3.5329,-3.6808
40.0377,-4.3288,-4.0049,-4.2615
40.0763,-3.8533,-3.5623,-4.8083
40.115,-4.0229,-3.6877,-4.4908
40.1536,-4.8227,-4.5017,-4.322
40.1923,-4.382,-3.9902,-4.5908
40.2309,-4.7082,-4.888,-4.3627
40.2696,-4.1899,-3.7974,-4.4044
40.3082,-4.1543,-3.9822,-4.277
40.3469,-4.1169,-3.8544,-4.7417
40.3855,-4.4227,-4.2973,-4.5088
40.4241,-4.6132,-3.9403,-4.5382
40.4628,-4.5651,-4.342,-4.812
40.5014,-4.7402,-4.0643,-4.9844
40.5401,-4.4653,-3.9208,-4.954
40.5787,-3.9659,-3.7786,-4.6588
40.6174,-4.4239,-4.2461,-4.875
40.656,-4.0781,-3.7313,-4.7859
40.6947,-4.7855,-4.4979,-4.5687
40.7333,-4.4167,-4.1008,-4.5368
40.772,-4.2587,-3.8392,-4.4232
40.8106,-4.0626,-3.7933,-4.5004
40.8493,-4.509,-4.0503,-4.5012
40.8879,-4.6656,-3.9006,-4.7695
40.9266,-4.3548,-4.1791,-4.3271
40.9652,-3.8662,-3.585,-4.9288
41.0038,-4.3051,-4.6821,-5.0089
41.0425,-4.2964,-3.8791,-4.7544
41.0811,-4.7624,-3.9756,-4.5702
41.1198,-4.2647,-4.0253,-4.8312
41.1584,-4.7334,-4.056,-4.3655
41.1971,-4.4872,-4.094,-5.0051
41.2357,-4.576,-4.0812,-4.5933
41.2744,-4.359,-4.153,-4.4158
41.313,-3.9192,-3.6731,-4.4631
41.3517,-4.352,-4.0165,-4.3881
41.3903,-4.3298,-4.3484,-5.1697
41.429,-4.4182,-4.3166,-4.5904
41.4676,-4.1274,-4.0327,-4.5893
41.5062,-4.0957,-3.8537,-4.4505
41.5449,-4.0597,-3.9465,-4.418
41.5835,-4.0061,-3.6808,-4.6164
41.6222,-4.3247,-3.9711,-4.6052
41.6608,-4.4592,-4.1469,-4.7228
41.6995,-4.8539,-4.4321,-4.1674
41.7381,-4.418,-4.2084,-4.6671
41.7768,-4.1865,-3.9389,-4.5096
41.8154,-4.3338,-4.1124,-4.6428
41.8541,-4.1719,-4.2384,-4.5236
41.8927,-4.1869,-4.1453,-4.1017
41.9314,-4.2211,-4.5031,-4.1894
41.97,-4.6042,-4.3711,-4.9533
42.0087,-4.2018,-3.9498,-5.0768
42.0473,-4.3476,-3.7751,-4.4542
42.0859,-4.4215,-4.4936,-4.9369
42.1246,-4.0169,-3.7654,-4.3341
42.1632,-4.2444,-3.964,-4.6927
42.2019,-4.0209,-3.8135,-4.5072
42.2405,-4.1337,-3.7586,-4.39
42.2792,-4.4619,-3.9048,-4.414
42.3178,-4.4528,-4.568,-4.3085
42.3565,-4.3984,-4.0283,-4.3112
42.3951,-4.2131,-3.9718,-4.2823
42.4338,-4.0848,-3.952,-4.4955
42.4724,-4.1294,-3.727,-4.4191
42.5111,-4.1329,-3.9823,-4.4962
42.5497,-4.5078,-5.0642,-4.6294
42.5883,-4.5495,-4.0002,-4.6275
42.627,-4.5137,-4.1206,-4.07
42.6656,-4.47,-4.2449,-5.2922
42.7043,-4.3061,-4.1372,-4.4263
42.7429,-4.5096,-3.855,-4.3905
42.7816,-4.6621,-4.3049,-4.8227
42.8202,-4.0626,-3.7801,-4.5275
42.8589,-4.2338,-3.7962,-4.6908
42.8975,-4.5471,-5.54,-4.5956
42.9362,-4.0491,-3.7404,-4.3907
42.9748,-4.4504,-3.9643,-5.1085
43.0135,-4.162,-3.6548,-5.3216
43.0521,-4.0855,-3.7917,-4.4118
43.0908,-4.127,-3.9199,-5.015
43.1294,-5.2225,-4.5471,-4.6191
43.168,-4.3621,-3.8918,-4.3051
43.2067,-3.9391,-3.6717,-4.5652
43.2453,-4.5056,-4.1217,-4.3928
43.284,-5.362,-4.3748,-4.858
43.3226,-4.1213,-3.9181,-4.5038
43.3613,-4.0429,-3.7508,-5.0557
43.3999,-4.4849,-4.6768,-4.6236
43.4386,-4.0045,-3.6336,-4.4599
43.4772,-4.2577,-4.1961,-4.2784
43.5159,-4.3207,-4.0303,-4.3032
43.5545,-4.357,-3.9345,-4.9035
43.5932,-4.0521,-3.9083,-4.5057
43.6318,-4.0737,-3.7259,-4.3066
43.6704,-4.1948,-3.8518,-4.8299
43.7091,-4.3063,-3.869,-4.4607
43.7477,-4.5711,-4.0036,-4.3832
43.7864,-4.4964,-4.1485,-4.5661
43.825,-4.4447,-4.6131,-4.4363
43.8637,-4.9801,-4.7512,-4.6335
43.9023,-4.0,-3.6511,-4.6818
43.941,-4.3197,-4.2448,-4.708
43.9796,-4.5829,-4.1196,-4.4807
44.0183,-4.0327,-3.7957,-5.5066
44.0569,-4.2248,-3.9031,-5.1119
44.0956,-4.2105,-3.9028,-4.6422
44.1342,-4.0574,-3.7357,-4.9598
44.1729,-4.4311,-3.8368,-4.3036
44.2115,-4.2555,-4.0472,-4.5679
44.2501,-4.521,-4.7318,-4.8452
44.2888,-5.0275,-4.4049,-5.0012
44.3274,-4.2709,-3.9962,-4.7559
44.3661,-4.7423,-4.1486,-4.5151
44.4047,-4.4748,-4.8627,-4.687
44.4434,-4.3302,-4.2083,-4.3595
44.482,-4.0335,-3.8563,-4.2977
44.5207,-5.2088,-4.2499,-4.5117
44.5593,-4.4649,-4.0974,-4.5093
44.598,-4.1539,-3.9085,-4.7031
44.6366,-4.3554,-4.2253,-4.6465
44.6753,-4.2969,-4.2904,-4.5478
44.7139,-4.4048,-4.3271,-4.6409
44.7525,-4.2066,-4.1141,-4.8419
44.7912,-4.7954,-4.0495,-4.3354
44.8298,-4.3161,-3.7653,-4.2827
44.8685,-4.6488,-4.1862,-4.2214
44.9071,-4.1678,-3.7413,-4.5722
44.9458,-4.6,-4.3448,-4.7167
44.9844,-4.3461,-3.8268,-4.7387
45.0231,-4.6448,-4.5472,-5.0524
45.0617,-4.448,-5.4028,-4.5546
45.1004,-4.3324,-3.7767,-4.9815
45.139,-4.4003,-4.6366,-4.5399
45.1777,-4.178,-3.8656,-4.5611
45.2163,-4.2778,-3.9188,-5.0657
45.255,-4.7751,-5.108,-4.5655
45.2936,-4.887,-4.4834,-4.5249
45.3322,-4.5599,-4.5172,-5.0289
45.3709,-4.356,-4.3156,-4.5259
45.4095,-5.0726,-4.2437,-4.4506
45.4482,-4.8606,-3.9616,-4.7939
45.4868,-4.1647,-3.9265,-4.5368
45.5255,-4.7427,-4.3197,-4.5273
45.5641,-4.2649,-4.3877,-4.5462
45.6028,-4.3395,-4.1964,-4.7097
45.6414,-4.2881,-4.1265,-4.6733
45.6801,-4.8512,-4.7775,-4.5533
45.7187,-4.3255,-4.385,-4.9376
45.7574,-4.3544,-4.0656,-4.4915
45.796,-4.6975,-4.2029,-4.9491
45.8346,-4.6265,-4.9066,-4.5563
45.8733,-4.9257,-4.4598,-4.5681
45.9119,-4.0611,-3.8875,-4.458
45.9506,-4.319,-3.991,-4.6195
45.9892,-4.2385,-4.1091,-4.3684
46.0279,-4.102,-3.7859,-4.6694
46.0665,-5.0699,-4.3738,-5.1525
46.1052,-4.4064,-3.922,-4.7542
46.1438,-4.3646,-4.1898,-4.5892
46.1825,-4.4695,-4.0317,-4.7071
46.2211,-4.3829,-4.23,-5.625
46.2598,-4.884,-4.0236,-4.7069
46.2984,-4.1349,-3.9638,-4.3987
46.3371,-4.3671,-3.9242,-4.7742
46.3757,-4.2107,-3.9891,-4.5821
46.4143,-4.3862,-4.1898,-4.3725
46.453,-4.2929,-3.9722,-4.8821
46.4916,-4.5836,-4.397,-4.7964
46.5303,-4.2443,-3.9441,-4.6686
46.5689,-4.2714,-4.0398,-4.5915
46.6076,-4.5493,-4.1636,-4.8228
46.6462,-4.5137,-4.0401,-4.4923
46.6849,-4.1729,-4.3509,-4.598
46.7235,-4.2891,-3.9676,-4.8571
46.7622,-4.4305,-4.095,-4.4742
46.8008,-4.2049,-3.8584,-4.8869
46.8395,-4.3817,-3.8969,-4.7755
46.8781,-4.296,-4.2571,-4.5257
46.9167,-4.4567,-4.413,-4.6089
46.9554,-4.377,-4.1522,-4.7521
46.994,-4.7721,-4.4191,-4.2007
47.0327,-4.5326,-4.6585,-4.9625
47.0713,-4.4036,-3.9371,-4.7668
47.11,-4.6815,-4.3586,-4.6265
47.1486,-4.3553,-4.1102,-4.4378
47.1873,-4.9563,-4.4828,-4.4083
47.2259,-4.4906,-4.2619,-4.8958
47.2646,-4.727,-5.0113,-4.809
47.3032,-4.8271,-3.8908,-4.4448
47.3419,-4.5633,-4.7519,-4.5741
47.3805,-4.7338,-4.6134,-4.7556
47.4192,-4.293,-3.7422,-5.1668
47.4578,-4.6763,-4.1207,-4.395
47.4964,-4.196,-3.8431,-4.5551
47.5351,-4.5787,-4.5998,-4.5208
47.5737,-4.8589,-4.0678,-4.8414
47.6124,-4.2657,-3.7455,-4.5844
47.651,-4.8155,-4.5058,-4.7051
47.6897,-4.9482,-4.2805,-5.1416
47.7283,-4.3641,-4.0644,-4.7715
47.767,-4.0185,-3.7551,-4.5111
47.8056,-4.6987,-4.1372,-5.7491
47.8443,-4.8053,-4.2883,-4.3325
47.8829,-4.6808,-4.1036,-4.6939
47.9216,-4.3636,-4.0465,-4.935
47.9602,-4.3615,-4.3136,-4.2668
47.9988,-4.4331,-4.0746,-4.9052
48.0375,-4.43,-4.1999,-4.4277
48.0761,-4.3113,-4.0539,-5.0292
48.1148,-4.323,-4.0596,-5.2678
48.1534,-4.5393,-4.5313,-4.4592
48.1921,-4.4052,-4.4682,-4.5902
48.2307,-4.3386,-4.3477,-4.5682
48.2694,-4.6292,-3.9897,-4.512
48.308,-4.4229,-4.1741,-4.7419
48.3467,-4.1926,-4.0614,-4.7006
48.3853,-5.0722,-4.4921,-4.597
48.424,-4.405,-4.1169,-4.608
48.4626,-4.8385,-4.1317,-4.5552
48.5012,-4.6043,-4.2421,-4.7987
48.5399,-4.3089,-4.466,-4.3842
48.5785,-4.3446,-4.1558,-4.6311
48.6172,-4.5178,-4.1712,-4.7124
48.6558,-5.1221,-4.0389,-5.0807
48.6945,-4.3959,-4.4547,-4.6737
48.7331,-5.0252,-4.3377,-5.3129
48.7718,-4.4883,-4.2572,-5.0928
48.8104,-4.3686,-3.9054,-4.5876
48.8491,-4.2563,-4.1455,-4.5987
48.8877,-4.4039,-4.6213,-4.4168
48.9264,-4.2096,-3.9782,-4.7316
48.965,-4.1169,-3.9983,-4.686
49.0037,-4.4574,-4.0799,-4.5633
49.0423,-4.2971,-4.0332,-4.5023
49.0809,-4.2417,-4.0487,-4.7034
49.1196,-4.4936,-4.1413,-4.4961
49.1582,-4.6037,-4.287,-4.854
49.1969,-4.5918,-4.1031,-4.8005
49.2355,-4.4108,-4.1398,-4.7476
49.2742,-4.7798,-4.19,-4.853
49.3128,-5.0281,-3.9089,-4.4416
49.3515,-5.7541,-4.0553,-4.4498
49.3901,-4.5377,-4.0611,-4.5717
49.4288,-4.854,-4.123,-5.5918
49.4674,-4.2036,-4.001,-4.693
49.5061,-4.656,-5.2049,-4.4201
49.5447,-4.1963,-4.1176,-5.372
49.5833,-4.2042,-3.835,-4.6918
49.622,-4.5829,-4.0582,-4.7235
49.6606,-4.4389,-4.1686,-4.7136
49.6993,-4.6016,-4.2214,-4.2292
49.7379,-5.1739,-4.2358,-4.4875
49.7766,-4.6841,-4.2318,-4.685
49.8152,-4.6088,-4.2576,-4.9311
49.8539,-4.1496,-4.0128,-5.1707
49.8925,-4.3375,-4.0788,-4.3208
49.9312,-4.353,-4.0193,-5.4487
49.9698,-3.9748,-3.4708,-4.1559
50.0085,-4.2475,-4.05,-4.4819
50.0471,-4.382,-4.0908,-4.4243
50.0858,-4.3169,-4.4121,-4.5047
50.1244,-4.4716,-4.4248,-4.5206
50.163,-4.3249,-3.9982,-4.3515
50.2017,-4.3075,-4.2119,-5.0908
50.2403,-4.2174,-4.0105,-4.4929
50.279,-4.3076,-3.966,-5.0735
50.3176,-4.0185,-3.7831,-4.5741
50.3563,-4.6047,-3.9959,-4.4
50.3949,-4.5542,-4.4804,-4.4461
50.4336,-4.355,-4.1051,-4.5591
50.4722,-4.5706,-4.2276,-4.5766
50.5109,-4.0853,-3.9309,-4.6071
50.5495,-4.3622,-4.3257,-4.886
50.5882,-4.6127,-4.0966,-4.8089
50.6268,-4.5095,-4.4982,-4.4397
50.6654,-4.1155,-3.7996,-4.7994
50.7041,-4.1836,-4.0009,-4.6025
50.7427,-4.464,-4.3315,-4.7789
50.7814,-4.6075,-5.0176,-4.4491
50.82,-4.7985,-3.9117,-4.7795
50.8587,-4.2127,-4.1665,-4.423
50.8973,-4.3392,-3.9876,-4.6778
50.936,-4.6802,-4.3829,-5.0854
50.9746,-4.3766,-4.2938,-4.8352
51.0133,-4.4824,-4.5159,-4.3883
51.0519,-4.0984,-3.9548,-4.5023
51.0906,-4.4629,-4.1946,-4.5026
51.1292,-4.2737,-4.1677,-4.4729
51.1679,-4.3338,-4.0165,-4.8791
51.2065,-4.1673,-3.8861,-5.0408
51.2451,-4.3068,-3.9717,-4.3802
51.2838,-4.807,-5.5724,-4.4671
51.3224,-4.2736,-4.0135,-4.1351
51.3611,-4.3159,-4.2571,-4.7992
51.3997,-4.3539,-4.288,-4.4045
51.4384,-4.1686,-3.9972,-4.4262
51.477,-4.9599,-4.4853,-4.9018
51.5157,-4.398,-4.4581,-4.9066
51.5543,-4.5597,-3.9792,-4.4516
51.593,-4.3439,-4.1386,-4.5477
51.6316,-4.2945,-4.1131,-4.2929
51.6703,-4.3143,-4.2525,-5.4861
51.7089,-4.9478,-4.0925,-4.5921
51.7475,-4.5454,-4.0483,-4.6104
51.7862,-4.8977,-4.2824,-4.778
51.8248,-4.8273,-4.2738,-5.1825
51.8635,-4.4838,-4.6116,-4.8825
51.9021,-4.4961,-4.59,-4.7035
51.9408,-4.4694,-4.1403,-4.8631
51.9794,-4.7373,-4.4318,-4.6969
52.0181,-4.3321,-4.1046,-5.4251
52.0567,-5.0037,-4.3476,-4.7574
52.0954,-4.5793,-4.4927,-5.284
52.134,-4.829,-4.3912,-4.5715
52.1727,-4.2902,-4.2259,-4.7073
52.2113,-4.5446,-4.3256,-4.6289
52.25,-4.8892,-5.1269,-4.9477
52.2886,-4.9446,-4.1186,-5.3463
52.3272,-4.7171,-4.0089,-5.2514
52.3659,-4.099,-3.8551,-5.7557
52.4045,-4.5356,-4.5362,-4.6028
52.4432,-4.4479,-3.9624,-4.4089
52.4818,-4.3157,-4.6298,-5.0965
52.5205,-4.2904,-4.0164,-4.5853
52.5591,-4.5799,-4.0885,-4.6129
52.5978,-5.1168,-4.2927,-4.4204
52.6364,-5.6451,-4.2146,-4.6466
52.6751,-4.3925,-4.9519,-4.4326
52.7137,-4.6135,-4.341,-4.8162
52.7524,-4.3133,-4.344,-4.5441
52.791,-4.4455,-4.0601,-4.3883
52.8296,-4.41,-4.2561,-4.9699
52.8683,-5.4055,-4.3153,-4.6024
52.9069,-4.4365,-4.2316,-5.3403
52.9456,-4.5523,-3.9956,-4.9815
52.9842,-4.559,-3.9721,-4.6935
53.0229,-4.3934,-4.3121,-5.1572
53.0615,-4.2652,-4.0929,-4.8358
53.1002,-4.3642,-4.3556,-4.4586
53.1388,-4.6035,-4.4883,-4.6637
53.1775,-4.7917,-4.1406,-4.3601
53.2161,-4.3992,-4.486,-4.7163
53.2548,-4.3879,-4.2062,-4.6065
53.2934,-4.5141,-4.1283,-5.4672
53.3321,-4.8321,-4.504,-4.3423
53.3707,-4.4289,-4.1031,-4.5057
53.4093,-4.7388,-5.0746,-4.309
53.448,-4.7889,-4.6678,-4.8634
53.4866,-4.4989,-4.2097,-4.6769
53.5253,-4.7392,-4.1103,-4.4763
53.5639,-4.8001,-4.0691,-4.8104
53.6026,-4.9835,-4.3089,-4.5432
53.6412,-4.6584,-4.168,-4.5155
53.6799,-4.549,-4.4666,-4.6107
53.7185,-4.708,-4.8404,-4.4702
53.7572,-4.2541,-3.9254,-4.65
53.7958,-4.3719,-4.2945,-4.7844
53.8345,-5.2578,-4.2581,-4.6297
53.8731,-4.413,-4.5015,-5.2694
53.9117,-4.313,-3.8916,-4.8795
53.9504,-4.2885,-3.9903,-4.7897
53.989,-4.4225,-4.0784,-4.7605
54.0277,-4.2389,-4.0141,-4.4368
54.0663,-4.8168,-4.4575,-4.5163
54.105,-4.872,-4.298,-4.7778
54.1436,-4.3811,-4.5546,-4.368
54.1823,-4.7128,-4.4538,-4.5658
54.2209,-4.4125,-4.7545,-4.5889
54.2596,-4.2315,-4.2305,-4.63
54.2982,-4.8003,-4.467,-5.0749
54.3369,-4.6881,-5.0412,-4.8528
54.3755,-4.3418,-4.1141,-5.41
54.4142,-4.6368,-4.3919,-4.5577
54.4528,-4.3709,-4.1201,-5.2675
54.4914,-4.7648,-4.3679,-4.6846
54.5301,-4.6124,-4.3108,-4.3731
54.5687,-4.6596,-4.1361,-5.3917
54.6074,-4.9395,-4.7726,-4.5257
54.646,-4.4488,-4.2801,-4.4924
54.6847,-5.1183,-4.1864,-4.4281
54.7233,-4.5283,-4.2712,-4.8736
54.762,-5.5385,-4.6558,-4.6237
54.8006,-5.1141,-4.099,-4.4931
54.8393,-4.6385,-4.798,-4.9498
54.8779,-5.0379,-5.1711,-4.7663
54.9166,-4.2627,-4.1618,-4.8327
54.9552,-4.328,-4.4181,-4.4933
54.9938,-4.3887,-4.1619,-4.4967
55.0325,-4.3793,-4.1309,-4.5281
55.0711,-4.5768,-4.0299,-4.4849
55.1098,-4.5657,-4.6986,-4.3109
55.1484,-4.9987,-4.4617,-4.3668
55.1871,-4.6592,-4.3477,-4.6272
55.2257,-4.3894,-4.4403,-4.41
55.2644,-4.3937,-4.3972,-4.9863
55.303,-4.4887,-4.1186,-4.4198
55.3417,-4.4043,-4.2017,-4.8958
55.3803,-4.7868,-4.3207,-5.1034
55.419,-4.6336,-4.3006,-4.8021
55.4576,-4.7125,-4.4392,-4.8212
55.4963,-5.1943,-4.1788,-5.0704
55.5349,-4.4035,-4.1264,-5.2053
55.5735,-4.4106,-4.1897,-4.4843
55.6122,-4.6912,-4.8803,-4.5089
55.6508,-4.3755,-4.2337,-4.5733
55.6895,-4.3355,-3.9755,-4.5339
55.7281,-4.6041,-4.2865,-4.3127
55.7668,-4.7615,-4.6001,-4.679
55.8054,-5.0757,-4.4849,-4.5019
55.8441,-5.1794,-4.9073,-4.7957
55.8827,-4.5063,-4.2779,-4.6836
55.9214,-4.5166,-4.0162,-4.8006
55.96,-4.8033,-4.7936,-4.5567
55.9987,-4.4352,-5.1748,-4.9621
56.0373,-4.7111,-4.1597,-4.6973
56.0759,-4.5926,-4.5799,-4.625
56.1146,-4.4392,-4.4359,-4.4966
56.1532,-4.7306,-4.42,-4.5875
56.1919,-4.7085,-4.8237,-4.6792
56.2305,-4.5261,-4.771,-4.5439
56.2692,-4.4513,-4.6894,-4.3284
56.3078,-4.3709,-4.2907,-4.7098
56.3465,-4.5096,-4.2403,-4.6695
56.3851,-4.3661,-4.6211,-4.7694
56.4238,-4.6713,-4.3418,-4.7145
56.4624,-4.7519,-4.3426,-4.7995
56.5011,-5.0493,-4.164,-5.3638
56.5397,-5.0855,-4.4979,-4.4056
56.5784,-5.004,-5.1112,-4.6559
56.617,-4.335,-4.051,-4.3274
56.6556,-4.5101,-4.1768,-5.0514
56.6943,-4.8043,-4.8733,-4.7571
56.7329,-4.6221,-4.6422,-5.2025
56.7716,-4.869,-4.5162,-4.4253
56.8102,-4.3789,-4.6777,-4.5131
56.8489,-4.6191,-4.3043,-4.9054
56.8875,-4.8235,-4.2836,-4.8192
56.9262,-5.6119,-4.4302,-4.6805
56.9648,-4.7035,-4.804,-4.743
57.0035,-5.2251,-4.5444,-4.5626
57.0421,-4.897,-4.1962,-4.5655
57.0808,-4.6784,-4.6782,-4.4156
57.1194,-4.3273,-4.12,-4.2773
57.158,-4.4306,-4.64,-4.797
57.1967,-4.378,-4.3779,-4.7932
57.2353,-4.4265,-4.062,-4.8949
57.274,-4.5973,-4.5573,-4.1718
57.3126,-4.6653,-4.2815,-4.4884
57.3513,-4.9296,-4.5359,-4.9401
57.3899,-4.3802,-4.3266,-4.5833
57.4286,-4.5837,-4.9557,-4.425
57.4672,-4.4277,-4.3791,-4.5663
57.5059,-5.1723,-4.5489,-4.341
57.5445,-4.1957,-3.9627,-4.335
57.5832,-4.4871,-4.7218,-4.3429
57.6218,-4.6945,-4.3985,-4.4361
57.6605,-4.3992,-4.1464,-4.5591
57.6991,-4.6472,-4.5865,-4.7152
57.7377,-4.7743,-4.976,-5.2499
57.7764,-4.4804,-4.3695,-4.9129
57.815,-4.2562,-3.914,-4.7016
57.8537,-4.3881,-4.3125,-4.835
57.8923,-4.7633,-4.5788,-5.0427
57.931,-4.6743,-4.6247,-4.7459
57.9696,-4.4476,-4.2044,-5.4657
58.0083,-4.7411,-4.6791,-4.6997
58.0469,-4.4783,-4.2119,-4.8447
58.0856,-5.2517,-4.5297,-4.3382
58.1242,-4.7107,-4.1914,-4.7789
58.1629,-4.4313,-4.2394,-5.2017
58.2015,-4.5223,-4.2201,-4.4492
58.2401,-4.7159,-4.7779,-4.6845
58.2788,-4.5535,-4.0598,-4.5447
58.3174,-4.4615,-4.2731,-4.8159
58.3561,-4.6135,-5.3055,-4.762
58.3947,-4.4674,-4.4125,-4.5502
58.4334,-4.5123,-4.636,-4.1448
58.472,-4.7826,-4.4806,-4.891
58.5107,-4.3283,-4.2907,-4.7293
58.5493,-4.6168,-4.194,-4.4864
58.588,-5.246,-4.5422,-4.2737
58.6266,-4.6288,-4.4532,-4.5902
58.6653,-4.9034,-4.3771,-4.7578
58.7039,-5.3125,-4.9678,-4.7315
58.7425,-4.2944,-4.0372,-4.786
58.7812,-4.7596,-4.6659,-4.5541
58.8198,-4.4886,-4.3834,-4.5019
58.8585,-4.7996,-4.5582,-5.1402
58.8971,-4.5776,-4.691,-4.7147
58.9358,-4.5979,-4.3942,-4.7685
58.9744,-4.5192,-4.2201,-4.6872
59.0131,-4.469,-4.365,-4.5918
59.0517,-4.3324,-4.3767,-4.93
59.0904,-5.1959,-4.503,-4.6584
59.129,-4.336,-4.1817,-4.6532
59.1677,-4.6204,-4.4606,-5.0778
59.2063,-4.8846,-4.578,-4.5456
59.245,-4.6238,-4.8819,-4.737
59.2836,-4.6071,-4.9839,-4.5077
59.3222,-4.1499,-3.924,-5.6589
59.3609,-5.009,-4.6292,-4.3495
59.3995,-4.6957,-4.5685,-5.1678
59.4382,-5.4352,-4.4984,-4.5599
59.4768,-4.4152,-4.2437,-5.1142
59.5155,-4.6015,-4.206,-5.3553
59.5541,-4.7434,-4.2256,-4.6431
59.5928,-4.716,-4.5055,-4.4911
59.6314,-5.0995,-4.7401,-4.9337
59.6701,-4.8443,-4.3596,-5.0201
59.7087,-4.815,-4.2913,-4.4427
59.7474,-4.7741,-4.6984,-4.8805
59.786,-4.4338,-4.2211,-4.5027
59.8246,-4.3411,-4.114,-5.5408
59.8633,-4.4512,-4.1416,-4.5629
59.9019,-4.5253,-4.5579,-4.6792
59.9406,-4.1808,-3.9708,-4.7655
59.9792,-3.1878,-3.2167,-3.3271
60.0179,-4.0848,-3.977,-4.0086
60.0565,-4.6252,-4.1272,-4.3101
60.0952,-4.2792,-4.0627,-5.2381
60.1338,-4.4779,-4.5217,-4.7406
60.1725,-4.6407,-5.0085,-5.0909
60.2111,-4.2114,-4.1745,-4.6174
60.2498,-4.5592,-4.5413,-4.5318
60.2884,-4.5682,-4.7168,-4.437
60.3271,-4.7367,-4.2124,-4.5025
60.3657,-4.4862,-4.4382,-4.3217
60.4043,-4.5158,-4.6834,-4.3121
60.443,-4.6874,-4.7884,-4.8693
60.4816,-4.4916,-4.7302,-5.0495
60.5203,-4.3933,-4.4707,-4.6794
60.5589,-4.2878,-4.3117,-5.3156
60.5976,-4.719,-4.7706,-4.4899
60.6362,-4.6364,-4.6866,-4.8124
60.6749,-4.3649,-4.492,-4.6365
60.7135,-4.483,-4.26,-4.7671
60.7522,-5.204,-4.8471,-4.4241
60.7908,-4.6515,-4.5279,-4.911
60.8295,-4.4953,-4.5666,-5.6341
60.8681,-4.6433,-5.0136,-4.2531
60.9067,-4.3827,-4.466,-4.7826
60.9454,-4.5136,-4.3419,-4.483
60.984,-4.408,-4.721,-5.2987
61.0227,-4.3348,-4.2628,-4.5846
61.0613,-4.6753,-5.0276,-4.8294
61.1,-4.7876,-4.6163,-4.2867
61.1386,-4.6743,-4.9037,-4.687
61.1773,-4.7326,-4.467,-4.7056
61.2159,-4.6119,-4.1917,-4.5578
61.2546,-4.8111,-4.583,-4.6176
61.2932,-4.7832,-4.6181,-5.2256
61.3319,-4.6049,-4.7231,-4.549
61.3705,-4.3937,-4.3508,-4.3352
61.4092,-4.3485,-4.5886,-4.4976
61.4478,-4.5637,-5.1783,-4.6726
61.4864,-4.3177,-4.2767,-4.9791
61.5251,-4.998,-4.5224,-4.2036
61.5637,-5.396,-4.4034,-4.3822
61.6024,-4.3987,-4.5725,-4.7516
61.641,-4.6802,-4.2727,-4.4377
61.6797,-4.4907,-4.3965,-4.5865
61.7183,-4.4573,-4.4743,-4.7085
61.757,-4.5514,-4.2668,-4.67
61.7956,-4.398,-4.7086,-4.5791
61.8343,-4.8226,-4.7335,-4.7305
61.8729,-4.5257,-4.3807,-4.4709
61.9116,-5.105,-4.2882,-4.887
61.9502,-4.9184,-4.5557,-4.7541
61.9888,-4.7873,-4.6485,-4.7823
62.0275,-4.5814,-4.8846,-4.9058
62.0661,-4.5357,-4.4141,-4.319
62.1048,-4.6446,-4.8624,-4.524
62.1434,-4.7512,-4.4391,-4.4823
62.1821,-5.0228,-4.5052,-4.536
62.2207,-4.9184,-4.4808,-4.6719
62.2594,-4.5845,-4.8264,-4.5704
62.298,-4.4117,-4.6862,-4.575
62.3367,-4.3785,-4.3444,-4.9313
62.3753,-4.4064,-4.2849,-4.5233
62.414,-4.5647,-4.6646,-4.8912
62.4526,-4.4151,-4.6603,-4.3131
62.4913,-4.7417,-4.4978,-4.45
62.5299,-5.1635,-4.2284,-4.1638
62.5685,-5.208,-5.5474,-4.4535
62.6072,-4.527,-4.6288,-4.8227
62.6458,-4.5597,-4.7546,-4.4032
62.6845,-4.6328,-4.2037,-4.3859
62.7231,-4.6909,-5.7069,-4.4432
62.7618,-4.2559,-4.1217,-4.5509
62.8004,-4.7022,-4.9825,-5.1027
62.8391,-4.571,-4.9363,-4.5184
62.8777,-4.4362,-4.7169,-4.7326
62.9164,-4.5037,-4.4191,-4.4156
62.955,-5.3708,-4.6016,-4.4496
62.9937,-4.4572,-4.4937,-4.7029
63.0323,-4.7314,-4.4185,-4.8629
63.0709,-4.577,-4.5276,-4.8205
63.1096,-5.5205,-4.1802,-4.4763
63.1482,-4.8568,-4.9148,-4.3812
63.1869,-4.6363,-5.0694,-5.0314
63.2255,-4.924,-4.7374,-4.6825
63.2642,-4.4777,-4.3959,-4.6574
63.3028,-4.5727,-4.7153,-4.4375
63.3415,-4.5021,-4.8977,-4.5094
63.3801,-5.2838,-5.0033,-4.47
63.4188,-4.3954,-4.327,-4.5105
63.4574,-4.3592,-4.5347,-4.6337
63.4961,-4.4808,-4.3229,-4.4974
63.5347,-4.9087,-4.6754,-4.4302
63.5734,-4.6492,-4.3489,-5.2313
63.612,-4.7704,-4.701,-4.7557
63.6506,-4.7015,-4.6723,-4.4017
63.6893,-4.4452,-4.4301,-4.3969
63.7279,-4.9977,-4.8007,-4.8843
63.7666,-4.8009,-4.6665,-4.4581
63.8052,-4.4149,-4.4322,-5.0129
63.8439,-4.5536,-4.478,-4.775
63.8825,-5.141,-4.5917,-4.7521
63.9212,-4.5602,-4.4029,-4.342
63.9598,-4.4612,-5.0806,-4.5282
63.9985,-4.7749,-4.7453,-5.4375
64.0371,-4.7793,-5.017,-4.4666
64.0758,-4.3808,-4.3687,-4.8512
64.1144,-4.805,-4.8345,-4.5852
64.153,-4.6661,-5.1699,-4.5087
64.1917,-4.3107,-4.3841,-5.1293
64.2303,-4.6153,-4.5521,-4.3871
64.269,-5.1476,-4.9994,-4.5959
64.3076,-4.6014,-4.5007,-4.4731
64.3463,-4.4107,-4.5306,-4.5459
64.3849,-5.5313,-4.6577,-5.2833
64.4236,-4.3745,-4.1702,-4.8533
64.4622,-4.6935,-4.7081,-4.4397
64.5009,-4.785,-4.5207,-4.4989
64.5395,-4.8862,-4.6059,-4.5808
64.5782,-4.8165,-4.3107,-4.6221
64.6168,-4.4855,-4.4062,-4.7185
64.6555,-4.5087,-4.4213,-4.4218
64.6941,-4.4897,-4.6367,-5.2005
64.7327,-4.593,-4.4418,-4.3674
64.7714,-4.4397,-4.6713,-4.8987
64.81,-4.6572,-4.7345,-4.3634
64.8487,-4.5892,-4.3132,-4.1959
64.8873,-4.3739,-4.5115,-4.5021
64.926,-4.7417,-4.5381,-4.9128
64.9646,-4.7769,-4.5659,-5.1186
65.0033,-4.9277,-4.6464,-4.6245
65.0419,-4.3054,-4.1653,-4.6317
65.0806,-4.658,-4.9196,-4.5074
65.1192,-4.5805,-4.4667,-5.1131
65.1579,-4.7372,-5.2996,-4.358
65.1965,-4.4662,-4.6425,-4.9798
65.2351,-4.4426,-4.5096,-4.5596
65.2738,-5.0517,-4.5787,-4.5005
65.3124,-5.0446,-4.6689,-4.2876
65.3511,-5.2458,-5.9026,-5.4906
65.3897,-4.4008,-4.6142,-4.5562
65.4284,-4.807,-4.7671,-4.613
65.467,-4.5455,-5.433,-4.643
65.5057,-5.4273,-4.5978,-5.2387
65.5443,-4.8459,-4.6031,-4.6994
65.583,-4.4581,-4.5725,-4.3751
65.6216,-4.4878,-4.2757,-4.8543
65.6603,-4.5518,-4.4016,-4.8166
65.6989,-4.6729,-4.8145,-5.2472
65.7376,-4.9914,-4.6256,-4.4751
65.7762,-4.6824,-4.6038,-4.6398
65.8148,-4.6167,-4.9587,-4.7133
65.8535,-4.7462,-4.7524,-4.6251
65.8921,-5.0509,-4.3557,-4.5872
65.9308,-4.895,-5.0458,-4.4747
65.9694,-4.751,-4.7107,-4.805
66.0081,-4.456,-4.3859,-4.3448
66.0467,-5.1128,-4.561,-4.4497
66.0854,-4.4534,-4.5202,-4.5033
66.124,-4.862,-4.6401,-4.5924
66.1627,-4.724,-4.1836,-4.3806
66.2013,-4.954,-4.5084,-4.5686
66.24,-4.4885,-4.5312,-4.4463
66.2786,-4.927,-4.695,-4.4294
66.3172,-4.5365,-4.6389,-4.7528
66.3559,-4.5876,-4.2878,-4.5098
66.3945,-4.5685,-4.5698,-4.8369
66.4332,-4.5421,-4.5689,-4.3304
66.4718,-4.5664,-4.4522,-4.4905
66.5105,-4.664,-4.4952,-4.4962
66.5491,-4.7538,-5.0258,-4.5649
66.5878,-5.3462,-4.7626,-4.3697
66.6264,-4.4082,-4.3103,-5.1824
66.6651,-4.7054,-5.0314,-5.2869
66.7037,-4.7078,-4.5386,-4.4862
66.7424,-5.1171,-4.6515,-4.3756
66.781,-4.6224,-4.7938,-4.7587
66.8197,-4.5093,-4.5537,-5.054
66.8583,-5.0121,-5.2323,-4.548
66.8969,-4.8354,-4.3575,-5.7633
66.9356,-4.8334,-4.3188,-5.0551
66.9742,-4.447,-4.3997,-5.1427
67.0129,-4.7444,-4.4531,-4.5853
67.0515,-4.5351,-4.3947,-4.8532
67.0902,-4.7113,-4.2959,-4.4994
67.1288,-4.753,-4.447,-4.7812
67.1675,-5.0608,-4.8509,-5.0974
67.2061,-4.8181,-5.2675,-4.7565
67.2448,-4.5128,-4.5672,-5.1077
67.2834,-5.097,-4.4401,-4.6766
67.3221,-4.7449,-4.856,-4.5719
67.3607,-4.5745,-4.8141,-4.3626
67.3993,-4.8634,-4.9836,-4.4294
67.438,-4.5862,-4.3709,-4.7998
67.4766,-4.85,-4.9339,-4.8624
67.5153,-4.4909,-4.4682,-4.9738
67.5539,-4.645,-4.5534,-4.967
67.5926,-4.7142,-5.1906,-4.6236
67.6312,-5.083,-4.636,-4.3918
67.6699,-4.4194,-4.5579,-4.6561
67.7085,-4.7882,-4.6461,-4.9819
67.7472,-4.5528,-4.6649,-4.7817
67.7858,-4.5506,-4.4914,-4.8187
67.8245,-4.5814,-4.4069,-5.1383
67.8631,-4.5585,-4.6423,-4.6719
67.9017,-5.0469,-4.8612,-4.2643
67.9404,-4.6222,-4.6308,-5.085
67.979,-4.8086,-5.3701,-4.5596
68.0177,-5.0525,-4.7052,-4.7396
68.0563,-4.6327,-4.8049,-4.7946
68.095,-5.3722,-4.9215,-4.6102
68.1336,-4.5282,-4.5477,-4.535
68.1723,-4.6934,-4.5964,-4.6351
68.2109,-4.7687,-4.772,-4.9674
68.2496,-4.8636,-4.7779,-4.4885
68.2882,-4.6141,-5.4302,-4.5497
68.3269,-4.4066,-4.2923,-4.5333
68.3655,-4.6908,-4.5373,-5.0853
68.4042,-4.6376,-4.6208,-4.9382
68.4428,-5.4708,-4.5117,-4.9761
68.4814,-4.4217,-4.5016,-5.0241
68.5201,-5.0846,-5.1694,-4.5796
68.5587,-4.3844,-4.4859,-5.2487
68.5974,-4.5183,-4.537,-5.7872
68.636,-4.5815,-4.9429,-4.4912
68.6747,-4.7713,-4.562,-4.5835
68.7133,-4.5718,-4.5606,-5.0204
68.752,-4.7016,-4.6483,-4.67
68.7906,-4.4007,-4.6291,-5.1126
68.8293,-4.5402,-4.5258,-5.0946
68.8679,-4.7152,-4.6129,-4.2968
68.9066,-4.5794,-4.644,-4.8601
68.9452,-5.2,-4.7672,-5.3882
68.9838,-4.9442,-4.976,-4.8739
69.0225,-4.6255,-4.4369,-4.5883
69.0611,-4.5497,-4.6376,-4.5326
69.0998,-4.6519,-4.3561,-4.7433
69.1384,-4.6711,-5.393,-4.4203
69.1771,-4.6327,-4.3274,-4.6604
69.2157,-4.6602,-4.8666,-4.4801
69.2544,-4.8865,-4.4413,-4.7003
69.293,-4.8043,-4.6009,-4.8056
69.3317,-5.5015,-5.1223,-4.5842
69.3703,-4.5264,-4.5571,-4.5653
69.409,-4.6417,-4.884,-4.7159
69.4476,-4.8084,-4.8023,-4.4552
69.4863,-5.078,-4.9423,-5.0603
69.5249,-4.7847,-5.2376,-4.3503
69.5635,-4.6587,-4.4604,-4.526
69.6022,-5.3678,-4.7396,-4.4188
69.6408,-4.7801,-4.6064,-4.826
69.6795,-4.4442,-4.3689,-4.6373
69.7181,-4.6415,-4.5629,-4.4947
69.7568,-4.5993,-4.9772,-5.1931
69.7954,-5.0583,-5.0591,-4.6893
69.8341,-4.7926,-4.6642,-4.4796
69.8727,-4.6888,-5.0355,-4.713
69.9114,-4.6478,-4.5648,-4.9704
69.95,-4.5958,-4.2819,-4.6589
69.9887,-4.3986,-3.894,-3.7534
70.0273,-4.651,-4.4812,-4.2604
70.0659,-5.1992,-4.4091,-4.3132
70.1046,-4.9007,-4.628,-4.6169
70.1432,-4.5103,-4.5601,-4.2308
70.1819,-4.6589,-4.7003,-4.7983
70.2205,-4.5396,-4.5769,-4.3133
70.2592,-4.6662,-4.5013,-4.4708
70.2978,-4.6131,-4.7648,-4.3907
70.3365,-4.6896,-4.304,-5.0699
70.3751,-4.8547,-4.7112,-4.9576
70.4138,-4.7158,-4.6127,-4.663
70.4524,-4.5449,-4.4317,-4.3991
70.4911,-4.7877,-4.4293,-4.8208
70.5297,-4.4256,-4.616,-4.6263
70.5684,-4.9459,-4.6973,-4.8165
70.607,-4.5845,-4.5749,-4.2942
70.6456,-4.4572,-4.9279,-5.0997
70.6843,-4.5634,-4.5319,-4.757
70.7229,-5.0496,-4.9094,-4.7429
70.7616,-4.8927,-4.4871,-4.9277
70.8002,-4.9332,-5.8398,-4.6649
70.8389,-4.3255,-4.3014,-4.3602
70.8775,-4.9793,-4.994,-4.7102
70.9162,-4.4196,-4.5782,-4.6834
70.9548,-4.6169,-4.7049,-5.4092
70.9935,-4.8106,-5.044,-4.617
71.0321,-4.6937,-4.387,-4.4502
71.0708,-4.3618,-4.6592,-4.4558
71.1094,-4.5694,-4.5854,-5.3992
71.148,-4.9031,-4.8775,-4.604
71.1867,-4.5572,-4.8336,-4.4529
71.2253,-4.3911,-4.4815,-4.8639
71.264,-4.7801,-4.43,-5.0556
71.3026,-4.5519,-4.5642,-4.3687
71.3413,-4.8018,-5.0307,-4.674
71.3799,-4.4387,-4.687,-4.5766
71.4186,-4.9629,-4.7448,-4.574
71.4572,-4.5333,-4.5667,-4.5508
71.4959,-4.5327,-5.2833,-4.419
71.5345,-4.5106,-4.6286,-4.3952
71.5732,-4.4722,-5.1971,-4.4375
71.6118,-5.2183,-4.5202,-4.3644
71.6505,-4.4682,-4.6553,-4.6299
71.6891,-4.61,-5.0651,-4.8303
71.7277,-4.9022,-4.7454,-4.4919
71.7664,-4.5484,-4.7387,-4.6364
71.805,-5.0078,-4.9894,-4.3771
71.8437,-4.4392,-4.6288,-4.768
71.8823,-4.8053,-5.1543,-4.7978
71.921,-4.6872,-4.6558,-4.482
71.9596,-5.3664,-4.3233,-4.6879
71.9983,-5.3029,-4.6403,-4.4078
72.0369,-4.9836,-5.2021,-4.8026
72.0756,-4.4235,-4.6829,-4.6427
72.1142,-4.7029,-4.3843,-4.6588
72.1529,-5.1315,-4.551,-4.4945
72.1915,-4.5037,-4.3288,-4.5844
72.2301,-4.9685,-5.0813,-4.6321
72.2688,-5.0496,-5.1087,-4.8934
72.3074,-4.7552,-5.0329,-4.6821
72.3461,-4.6335,-5.1889,-4.5621
72.3847,-4.7324,-4.9549,-4.3344
72.4234,-4.6112,-4.5466,-4.9613
72.462,-4.8239,-4.4311,-4.8884
72.5007,-4.6841,-4.6408,-4.3389
72.5393,-4.7306,-4.9515,-4.9469
72.578,-4.915,-4.605,-4.4935
72.6166,-4.8721,-4.5944,-4.7905
72.6553,-5.2335,-4.4351,-4.79
72.6939,-4.5589,-4.5745,-5.1456
72.7326,-4.7266,-5.1328,-4.7621
72.7712,-4.6629,-4.2764,-4.3109
72.8098,-4.6155,-4.5706,-4.4365
72.8485,-4.6893,-4.9877,-4.3895
72.8871,-5.0099,-5.1582,-4.9437
72.9258,-4.693,-4.395,-4.613
72.9644,-5.2942,-4.5639,-4.4885
73.0031,-4.5681,-4.9009,-4.746
73.0417,-4.4949,-4.4684,-4.9142
73.0804,-4.814,-4.833,-4.4218
73.119,-5.0347,-4.968,-4.5111
73.1577,-4.5869,-4.4275,-4.5719
73.1963,-4.7281,-4.3793,-4.4267
73.235,-4.6201,-4.5407,-4.4336
73.2736,-4.8938,-4.9035,-4.4626
73.3122,-4.5949,-5.089,-5.8363
73.3509,-4.5565,-4.3571,-4.6849
73.3895,-4.6487,-4.6912,-4.4679
73.4282,-4.8652,-5.2003,-4.8773
73.4668,-4.5341,-4.6778,-4.4271
73.5055,-4.6388,-4.7708,-4.6685
73.5441,-4.5549,-4.557,-4.8162
73.5828,-4.9993,-4.6621,-4.6237
73.6214,-4.7209,-4.4309,-4.4615
73.6601,-4.739,-5.2925,-4.7549
73.6987,-4.5824,-4.711,-4.9104
73.7374,-4.7028,-5.3349,-4.5989
73.776,-4.5073,-4.2086,-4.5573
73.8147,-4.4043,-4.4279,-4.8019
73.8533,-4.4359,-4.3671,-4.6204
73.8919,-4.6249,-4.4797,-4.4409
73.9306,-4.6295,-4.6099,-4.8435
73.9692,-4.6568,-4.6535,-5.2108
74.0079,-4.7528,-4.8207,-4.9424
74.0465,-4.8349,-5.545,-4.7918
74.0852,-5.0707,-4.5683,-4.5065
74.1238,-4.5238,-4.5042,-4.6645
74.1625,-4.7264,-4.9435,-4.6654
74.2011,-5.2035,-4.4412,-4.3519
74.2398,-4.6635,-4.645,-4.5618
74.2784,-4.4609,-5.0595,-4.3623
74.3171,-4.6293,-4.8898,-4.4238
74.3557,-4.6194,-4.6638,-4.5946
74.3943,-4.9163,-5.156,-4.5423
74.433,-4.6199,-4.4763,-4.6468
74.4716,-4.6798,-4.753,-4.438
74.5103,-5.6249,-4.4779,-4.5785
74.5489,-4.4865,-4.4202,-4.5716
74.5876,-4.6815,-4.5637,-4.649
74.6262,-4.6483,-4.7495,-4.5296
74.6649,-4.5723,-4.7422,-4.8057
74.7035,-4.9335,-4.545,-5.3763
74.7422,-4.7801,-4.517,-5.048
74.7808,-4.603,-4.4521,-4.7154
74.8195,-5.0193,-4.6194,-4.549
74.8581,-4.7749,-4.8816,-4.6176
74.8968,-4.5561,-4.9056,-4.4895
74.9354,-4.9422,-4.3359,-4.7406
74.974,-4.9165,-4.7914,-4.8032
75.0127,-4.6234,-4.805,-4.6932
75.0513,-4.5911,-4.6207,-4.5546
75.09,-4.5455,-4.4512,-4.454
75.1286,-4.7289,-4.2653,-4.5089
75.1673,-4.7737,-4.5549,-4.6129
75.2059,-4.9551,-4.744,-4.6594
75.2446,-4.6848,-4.8397,-5.2854
75.2832,-4.416,-4.654,-4.3454
75.3219,-5.1917,-4.818,-4.5227
75.3605,-5.0008,-4.5817,-4.9676
75.3992,-4.5747,-4.7374,-4.566
75.4378,-4.6399,-4.6846,-4.7215
75.4764,-4.6706,-5.1081,-4.4015
75.5151,-4.5497,-4.7684,-4.7985
75.5537,-5.4954,-5.1948,-4.4187
75.5924,-4.5875,-4.8249,-4.6246
75.631,-4.9353,-4.7051,-4.8868
75.6697,-4.7606,-5.0794,-4.4571
75.7083,-4.6031,-5.4422,-4.8811
75.747,-4.7256,-4.5297,-4.4539
75.7856,-5.2579,-4.6978,-4.3711
75.8243,-4.4144,-4.8906,-4.2917
75.8629,-4.5628,-4.5547,-4.6445
75.9016,-4.6701,-4.9625,-4.7411
75.9402,-4.6102,-4.5502,-5.0243
75.9789,-4.6817,-4.6662,-4.4756
76.0175,-4.7549,-4.7943,-4.4803
76.0561,-4.636,-4.479,-4.8766
76.0948,-4.777,-4.8588,-4.5985
76.1334,-4.6127,-4.9572,-4.8564
76.1721,-5.0474,-4.7512,-4.6326
76.2107,-4.9545,-5.2035,-4.5647
76.2494,-4.5823,-4.7898,-4.5331
76.288,-4.3774,-4.4534,-4.3892
76.3267,-5.2571,-4.4491,-4.4709
76.3653,-4.7587,-4.5579,-4.5579
76.404,-4.5331,-4.4991,-4.8739
76.4426,-4.9745,-4.3525,-4.4329
76.4813,-4.8816,-4.687,-4.4848
76.5199,-4.9125,-4.4442,-4.6556
76.5585,-4.7121,-4.6849,-5.3379
76.5972,-4.7108,-4.6924,-4.4565
76.6358,-4.3304,-4.6325,-4.7949
76.6745,-4.5229,-4.3018,-4.771
76.7131,-4.5873,-4.7013,-4.5367
76.7518,-4.7473,-4.592,-5.2324
76.7904,-5.2183,-4.9978,-4.3519
76.8291,-4.6345,-4.7129,-4.5047
76.8677,-4.5685,-4.7226,-4.9518
76.9064,-4.4501,-4.6468,-4.6539
76.945,-4.9845,-4.5692,-4.2871
76.9837,-4.6382,-4.2678,-4.6126
77.0223,-5.2855,-4.7784,-4.4647
77.061,-4.9719,-5.2199,-5.2269
77.0996,-4.5864,-5.408,-5.0739
77.1382,-4.5177,-5.0651,-4.6081
77.1769,-5.0141,-4.8969,-4.3833
77.2155,-4.8423,-4.6183,-4.623
77.2542,-4.8152,-4.8267,-5.5275
77.2928,-5.1632,-4.6219,-4.8355
77.3315,-4.8192,-4.365,-4.7255
77.3701,-4.8279,-4.4426,-4.5669
77.4088,-4.6919,-4.7253,-4.32
77.4474,-4.5791,-4.8625,-4.6732
77.4861,-4.9504,-5.233,-4.9258
77.5247,-4.8839,-4.9807,-4.6446
77.5634,-4.4143,-4.8,-4.6637
77.602,-4.5367,-4.6938,-4.5955
77.6406,-4.6291,-4.4809,-4.4776
77.6793,-5.2254,-4.8844,-5.2222
77.7179,-5.0429,-4.5922,-4.3949
77.7566,-4.4592,-4.3869,-4.7355
77.7952,-4.7724,-4.4645,-4.6429
77.8339,-4.8231,-5.0446,-4.4929
77.8725,-4.5891,-4.4903,-4.5416
77.9112,-4.6852,-4.7179,-4.3403
77.9498,-4.7916,-4.6431,-5.1333
77.9885,-4.586,-5.0553,-4.8537
78.0271,-4.6704,-4.7429,-4.8124
78.0658,-4.9584,-4.4851,-4.5019
78.1044,-4.6648,-4.716,-4.6424
78.143,-4.6098,-4.5112,-4.5316
78.1817,-4.8041,-4.8264,-4.5555
78.2203,-4.5125,-5.0417,-4.5552
78.259,-4.7686,-5.0195,-4.432
78.2976,-4.7933,-4.718,-4.3755
78.3363,-4.5985,-4.95,-4.9905
78.3749,-4.7766,-4.7895,-5.4189
78.4136,-4.7275,-4.9444,-4.8074
78.4522,-4.5357,-4.5469,-5.1107
78.4909,-4.8115,-4.627,-4.3373
78.5295,-4.8246,-4.9194,-4.6179
78.5682,-4.6078,-4.5939,-4.3936
78.6068,-5.3591,-4.4618,-4.2327
78.6455,-4.4197,-4.8268,-4.8664
78.6841,-4.4087,-4.548,-4.1199
78.7227,-4.6958,-5.1596,-5.1106
78.7614,-4.8159,-4.8669,-5.3704
78.8,-4.5777,-4.8867,-4.4974
78.8387,-5.0629,-5.0798,-4.4687
78.8773,-4.7937,-5.365,-4.4574
78.916,-4.5067,-4.4942,-4.6963
78.9546,-4.7353,-4.6204,-4.3971
78.9933,-4.5288,-4.5698,-4.6193
79.0319,-4.5548,-4.4266,-4.2525
79.0706,-4.6182,-4.7642,-4.3314
79.1092,-4.9308,-4.6812,-5.2587
79.1479,-4.5816,-4.3983,-4.4813
79.1865,-5.0324,-5.0434,-4.3344
79.2251,-4.8553,-4.9201,-4.2433
79.2638,-4.9147,-5.0409,-4.8201
79.3024,-4.4622,-5.2087,-4.4702
79.3411,-4.914,-4.6855,-5.031
79.3797,-5.1007,-4.5849,-4.6189
79.4184,-4.7111,-5.0016,-4.5673
79.457,-4.6341,-4.5518,-4.6619
79.4957,-4.7128,-4.657,-4.5922
79.5343,-4.52,-5.0906,-4.4017
79.573,-4.7352,-4.7101,-4.8226
79.6116,-4.8231,-4.8819,-4.5105
79.6503,-4.886,-5.0846,-4.3383
79.6889,-4.7584,-4.781,-4.8935
79.7276,-5.301,-4.6151,-4.5653
79.7662,-4.8122,-4.6665,-5.0109
79.8048,-4.4571,-5.2014,-4.617
79.8435,-4.7873,-5.2188,-4.7954
79.8821,-4.6134,-4.4843,-4.879
79.9208,-4.6861,-4.4922,-4.3127
79.9594,-4.7999,-4.6193,-4.019
79.9981,-4.769,-4.6845,-4.2563
80.0367,-4.916,-4.6832,-4.1736
80.0754,-5.1964,-4.6216,-4.6363
80.114,-5.1328,-4.6914,-4.5983
80.1527,-5.2672,-5.1708,-5.0912
80.1913,-4.6447,-5.1549,-4.6741
80.23,-4.4912,-4.6611,-4.36
80.2686,-4.4898,-4.4927,-4.576
80.3072,-4.9256,-4.5648,-4.5554
80.3459,-5.1863,-5.2229,-4.8673
80.3845,-4.9162,-4.7371,-4.3932
80.4232,-4.7201,-5.3609,-4.9333
80.4618,-4.7547,-4.8759,-4.7032
80.5005,-4.7846,-4.6569,-4.6112
80.5391,-4.8281,-4.9578,-4.6635
80.5778,-5.1155,-5.1567,-4.7742
80.6164,-4.592,-4.4774,-4.4391
80.6551,-4.7095,-4.5628,-5.5873
80.6937,-4.7418,-4.8382,-4.6678
80.7324,-5.3003,-4.5983,-4.5307
80.771,-4.4968,-4.5086,-4.6678
80.8097,-4.9257,-4.8023,-4.288
80.8483,-4.6869,-4.699,-4.4929
80.8869,-4.8942,-5.0779,-4.2262
80.9256,-4.8194,-5.4591,-4.7338
80.9642,-4.8613,-5.0378,-4.4417
81.0029,-4.4738,-4.3107,-4.7857
81.0415,-4.7705,-4.5756,-4.3659
81.0802,-4.6969,-4.4814,-5.2438
81.1188,-4.7728,-5.0367,-4.6886
81.1575,-4.776,-5.0338,-4.4237
81.1961,-4.6725,-4.9399,-4.4771
81.2348,-5.2656,-4.7137,-5.0669
81.2734,-5.3109,-5.185,-4.5739
81.3121,-4.8861,-4.7979,-4.9537
81.3507,-5.2392,-4.7134,-4.5075
81.3893,-4.6349,-4.6051,-4.5553
81.428,-4.5334,-4.9426,-4.8986
81.4666,-4.7148,-4.4677,-4.7948
81.5053,-5.3211,-4.6481,-4.8256
81.5439,-4.5994,-4.7137,-4.3339
81.5826,-5.0435,-4.9336,-4.5992
81.6212,-4.7792,-4.5537,-5.2324
81.6599,-4.6658,-5.0202,-6.5311
81.6985,-5.0671,-4.9342,-5.215
81.7372,-4.5278,-4.7138,-4.47
81.7758,-4.7479,-4.5395,-4.342
81.8145,-4.4534,-4.833,-4.6668
81.8531,-5.1454,-5.6358,-4.6838
81.8918,-4.6723,-4.986,-4.4539
81.9304,-4.7247,-4.8691,-4.7884
81.969,-4.4966,-4.7418,-4.8646
82.0077,-4.6468,-4.6684,-4.4711
82.0463,-4.6016,-4.8921,-4.3284
82.085,-4.6735,-4.7199,-4.4467
82.1236,-4.7883,-4.842,-4.7317
82.1623,-4.4945,-5.1523,-5.0872
82.2009,-6.149,-4.6563,-5.0264
82.2396,-4.6924,-5.3712,-4.7332
82.2782,-4.8491,-5.0442,-4.7257
82.3169,-4.8547,-5.2277,-4.8561
82.3555,-5.1212,-4.4403,-4.5262
82.3942,-4.9261,-4.9987,-4.8994
82.4328,-4.9538,-4.4141,-4.5713
82.4714,-4.9262,-4.865,-4.556
82.5101,-4.7503,-4.6476,-5.2117
82.5487,-5.0245,-4.8538,-4.8605
82.5874,-4.9229,-5.0537,-4.4874
82.626,-4.6956,-4.8212,-4.5769
82.6647,-5.1449,-5.7221,-4.7289
82.7033,-4.4774,-4.7617,-4.3425
82.742,-4.5111,-4.8125,-4.382
82.7806,-4.7123,-4.7988,-5.116
82.8193,-4.9961,-4.4677,-4.6692
82.8579,-4.3997,-4.3654,-4.3988
82.8966,-4.5008,-5.3089,-4.2249
82.9352,-4.7398,-4.6983,-4.6424
82.9739,-4.7329,-5.0103,-4.3787
83.0125,-4.5574,-4.8124,-4.236
83.0511,-4.4903,-4.4142,-4.8718
83.0898,-4.6397,-4.634,-5.0187
83.1284,-4.5557,-4.6895,-4.714
83.1671,-4.6838,-4.659,-4.3517
83.2057,-4.9923,-4.6719,-5.0818
83.2444,-4.7115,-4.4464,-4.6508
83.283,-4.8099,-4.7396,-4.9058
83.3217,-4.9799,-4.9818,-4.9134
83.3603,-4.6415,-4.8718,-4.4133
83.399,-4.795,-4.9799,-4.7262
83.4376,-4.8722,-4.8081,-4.8173
83.4763,-5.0992,-4.5572,-4.4638
83.5149,-4.9401,-4.7032,-4.7388
83.5535,-4.8672,-4.7062,-5.0312
83.5922,-4.7706,-4.5341,-4.6189
83.6308,-4.9436,-4.6467,-4.3349
83.6695,-4.4413,-5.1076,-4.7042
83.7081,-4.6903,-5.3907,-4.5014
83.7468,-4.9952,-5.0495,-4.725
83.7854,-4.8266,-4.8343,-4.8732
83.8241,-4.9125,-4.5323,-4.651
83.8627,-5.0744,-4.8754,-4.3977
83.9014,-4.5895,-4.7663,-4.2449
83.94,-5.1238,-4.8123,-4.4796
83.9787,-5.3801,-5.1542,-4.4038
84.0173,-4.6791,-5.0426,-4.2809
84.056,-5.5573,-4.8668,-4.9051
84.0946,-4.7531,-4.71,-5.0827
84.1332,-4.9473,-4.7235,-4.5623
84.1719,-4.5306,-4.7261,-4.3966
84.2105,-4.4757,-4.3843,-4.3877
84.2492,-4.6769,-4.6835,-4.8574
84.2878,-5.3571,-4.6285,-4.2294
84.3265,-5.0352,-4.5643,-4.3305
84.3651,-5.7439,-4.7639,-4.5728
84.4038,-4.3241,-4.3834,-4.5516
84.4424,-4.7301,-4.6817,-4.8656
84.4811,-4.9043,-4.8034,-4.4544
84.5197,-4.8759,-5.9376,-4.5509
84.5584,-4.6232,-4.6637,-4.3847
84.597,-4.4083,-4.3835,-4.3339
84.6356,-4.798,-4.8641,-4.6953
84.6743,-5.5982,-4.6002,-4.4512
84.7129,-4.9357,-4.8162,-4.6588
84.7516,-4.8601,-4.8636,-4.8084
84.7902,-4.7916,-4.3121,-4.9966
84.8289,-4.5022,-4.3393,-4.5364
84.8675,-4.616,-5.0082,-4.5776
84.9062,-4.5775,-4.6449,-4.8206
84.9448,-5.1574,-5.4346,-4.4288
84.9835,-4.9727,-5.173,-4.8588
85.0221,-4.4692,-4.4965,-4.7258
85.0608,-5.2462,-4.8991,-4.5739
85.0994,-4.9655,-4.6908,-4.6986
85.1381,-4.7686,-5.471,-5.0631
85.1767,-4.5355,-4.3279,-4.4243
85.2153,-4.693,-4.5679,-4.6718
85.254,-5.031,-4.5874,-4.5407
85.2926,-4.6997,-4.4233,-4.3941
85.3313,-4.7679,-4.8781,-4.7641
85.3699,-4.8018,-4.7118,-5.0181
85.4086,-4.8932,-5.1488,-4.5478
85.4472,-5.0394,-4.636,-4.7552
85.4859,-4.7341,-4.5888,-4.7904
85.5245,-4.8015,-4.8205,-4.7826
85.5632,-5.4596,-5.3735,-4.4347
85.6018,-4.8522,-4.6367,-4.7621
85.6405,-4.4994,-4.7772,-4.9207
85.6791,-5.6487,-4.7742,-4.8916
85.7177,-4.8477,-4.8491,-4.5014
85.7564,-4.7894,-4.8652,-4.4371
85.795,-4.723,-4.7133,-4.3894
85.8337,-4.5708,-4.4827,-4.727
85.8723,-4.9236,-4.7924,-4.5059
85.911,-4.5612,-4.8029,-4.3565
85.9496,-5.6413,-5.0297,-4.5537
85.9883,-4.6476,-4.5954,-4.8891
86.0269,-4.5746,-4.8041,-4.5425
86.0656,-5.4358,-4.5668,-4.3869
86.1042,-4.9829,-4.5381,-4.4387
86.1429,-5.0098,-4.839,-4.7772
86.1815,-4.8924,-5.0754,-4.8241
86.2202,-4.5907,-4.9527,-4.9422
86.2588,-4.8306,-4.9799,-4.3603
86.2974,-5.2214,-5.0922,-4.8889
86.3361,-4.8096,-4.5465,-4.4588
86.3747,-4.708,-5.1142,-4.432
86.4134,-4.8187,-5.6248,-4.4183
86.452,-4.7538,-4.6881,-4.6413
86.4907,-4.9163,-4.5746,-4.433
86.5293,-4.7637,-4.4882,-4.9141
86.568,-4.4714,-4.8536,-5.0358
86.6066,-4.6718,-4.7026,-4.5455
86.6453,-4.6769,-4.7366,-4.4277
86.6839,-4.8735,-4.9296,-4.7569
86.7226,-5.1346,-4.4666,-4.7815
86.7612,-4.8823,-4.8368,-4.5918
86.7998,-4.6705,-4.7293,-4.7571
86.8385,-4.903,-4.6474,-4.4341
86.8771,-4.9441,-5.0069,-4.9129
86.9158,-4.9895,-4.5793,-5.2279
86.9544,-4.6118,-4.7438,-4.623
86.9931,-4.461,-5.1496,-4.7293
87.0317,-4.6618,-5.0353,-4.6711
87.0704,-4.7324,-5.1,-4.4068
87.109,-4.6683,-5.4705,-4.3836
87.1477,-4.7727,-4.8758,-4.5694
87.1863,-4.6527,-4.8853,-4.962
87.225,-4.871,-5.0471,-4.7335
87.2636,-4.5409,-4.6219,-4.4143
87.3022,-4.6528,-4.7551,-4.6406
87.3409,-4.5697,-4.8204,-4.1892
87.3795,-5.1684,-4.6765,-4.542
87.4182,-4.5919,-5.2234,-4.291
87.4568,-4.6486,-4.6261,-4.2302
87.4955,-4.7872,-4.7348,-4.5268
87.5341,-4.7532,-4.6419,-4.3883
87.5728,-5.1062,-5.1497,-4.8075
87.6114,-4.8921,-5.0631,-4.8504
87.6501,-4.9652,-4.5392,-4.8391
87.6887,-4.8289,-4.5502,-4.0397
87.7274,-4.9301,-4.8207,-4.5645
87.766,-5.3238,-5.1279,-4.6251
87.8047,-4.6726,-4.6112,-4.3155
87.8433,-4.9878,-5.0775,-5.4639
87.8819,-4.7768,-4.7779,-4.2931
87.9206,-4.5733,-4.6278,-5.4577
87.9592,-5.0998,-5.0936,-4.2308
87.9979,-5.2609,-5.0091,-4.2734
88.0365,-5.1533,-5.0424,-4.8741
88.0752,-4.8564,-5.3022,-4.8922
88.1138,-5.0274,-5.0035,-4.8995
88.1525,-5.2795,-5.0035,-4.4871
88.1911,-4.8289,-4.821,-4.6573
88.2298,-4.7095,-5.099,-4.5576
88.2684,-5.2544,-5.4574,-4.7601
88.3071,-4.7292,-5.0488,-5.2714
88.3457,-4.5839,-4.5634,-4.6959
88.3843,-4.7361,-4.7323,-4.5689
88.423,-5.0273,-4.3856,-4.922
88.4616,-4.7447,-4.6466,-4.318
88.5003,-4.5342,-4.4693,-4.6947
88.5389,-4.7969,-4.8578,-4.2037
88.5776,-4.7337,-4.8069,-4.614
88.6162,-4.9461,-5.0132,-4.5722
88.6549,-4.7501,-4.919,-4.582
88.6935,-4.93,-5.0589,-4.5359
88.7322,-4.7214,-4.9842,-4.3553
88.7708,-4.7963,-4.7736,-4.3419
88.8095,-4.7549,-4.8459,-4.4336
88.8481,-4.4706,-4.7613,-4.4634
88.8868,-4.9669,-4.626,-4.4964
88.9254,-4.6656,-4.5172,-4.5735
88.964,-5.0191,-5.3436,-5.0967
89.0027,-5.0269,-4.9921,-4.5868
89.0413,-4.7849,-4.6852,-4.8744
89.08,-5.2276,-5.051,-4.6354
89.1186,-4.4468,-4.5803,-4.6416
89.1573,-5.427,-4.8874,-4.7222
89.1959,-5.0883,-5.0838,-4.1399
89.2346,-4.5365,-5.332,-4.3849
89.2732,-4.8135,-5.4553,-4.3785
89.3119,-4.9189,-4.7469,-5.4126
89.3505,-5.5574,-4.5018,-4.4227
89.3892,-5.1888,-4.9367,-4.621
89.4278,-4.764,-4.9687,-4.2517
89.4664,-4.6107,-4.5074,-4.3711
89.5051,-4.6594,-4.9207,-4.5288
89.5437,-4.6857,-5.2659,-4.834
89.5824,-4.683,-4.8476,-4.5894
89.621,-4.8536,-5.0775,-4.6395
89.6597,-4.5281,-4.6241,-4.844
89.6983,-5.1395,-4.7428,-4.3089
89.737,-5.7778,-5.1077,-4.3943
89.7756,-4.8854,-4.5815,-4.3373
89.8143,-5.0236,-5.0972,-4.4292
89.8529,-4.639,-4.9356,-4.3595
89.8916,-5.2026,-4.4079,-4.6108
89.9302,-5.3467,-4.5181,-4.4034
89.9689,-4.0931,-3.8101,-3.5896
90.0075,-4.7079,-4.3237,-3.9853
90.0461,-4.704,-4.581,-4.6596
90.0848,-4.9724,-4.9262,-4.6575
90.1234,-4.816,-4.8585,-4.5514
90.1621,-4.8978,-4.8704,-4.4233
90.2007,-4.8754,-4.791,-4.479
90.2394,-4.7619,-5.4551,-4.6771
90.278,-4.6929,-4.8541,-4.6755
90.3167,-4.8016,-4.8179,-4.4622
90.3553,-4.7608,-4.7593,-4.3098
90.394,-4.8009,-5.0942,-4.3704
90.4326,-5.1584,-4.7978,-4.7209
90.4713,-4.6901,-4.5611,-4.3309
90.5099,-4.701,-4.5292,-4.8834
90.5485,-4.9503,-5.1075,-4.8305
90.5872,-4.9125,-4.6163,-5.5709
90.6258,-4.9767,-4.9669,-4.4374
90.6645,-5.0219,-4.8864,-4.584
90.7031,-4.8222,-4.8791,-5.7467
90.7418,-4.6943,-5.1432,-4.2568
90.7804,-5.1855,-4.8036,-4.9527
90.8191,-4.7221,-5.1852,-4.8141
90.8577,-5.1171,-4.5476,-4.6195
90.8964,-5.043,-4.7591,-4.4921
90.935,-4.9466,-4.8436,-4.3985
90.9737,-4.8362,-4.6644,-4.5772
91.0123,-4.4255,-5.0831,-4.6943
91.051,-5.0888,-4.8479,-4.4608
91.0896,-4.7726,-5.1004,-4.5865
91.1282,-5.2622,-4.6801,-4.8453
91.1669,-5.1747,-4.6881,-4.5013
91.2055,-4.6923,-4.8607,-4.4971
91.2442,-4.6687,-4.7061,-5.0647
91.2828,-4.8274,-5.0517,-4.3505
91.3215,-4.9177,-5.2626,-4.7357
91.3601,-4.704,-4.7361,-5.0125
91.3988,-4.9197,-4.9418,-4.8815
91.4374,-4.7395,-4.7806,-4.5954
91.4761,-4.6639,-4.9162,-4.4234
91.5147,-5.0117,-5.3152,-4.3151
91.5534,-4.8288,-5.2039,-4.7195
91.592,-4.7383,-5.8723,-4.6704
91.6306,-4.7169,-4.638,-5.3794
91.6693,-5.0434,-5.7373,-4.4206
91.7079,-5.0588,-4.7887,-5.0523
91.7466,-4.6213,-4.6571,-4.772
91.7852,-4.6599,-4.7784,-4.6199
91.8239,-4.3417,-4.6748,-4.3798
91.8625,-4.799,-5.0459,-4.6084
91.9012,-5.2589,-5.044,-4.8275
91.9398,-5.4422,-4.758,-4.987
91.9785,-4.6096,-4.9261,-4.876
92.0171,-4.8285,-5.1143,-5.156
92.0558,-4.9954,-5.805,-5.2242
92.0944,-4.9442,-4.7184,-4.5335
92.1331,-4.9355,-4.6372,-4.5954
92.1717,-4.7163,-5.2821,-4.5668
92.2103,-4.7862,-4.7959,-5.2074
92.249,-4.5373,-4.796,-4.395
92.2876,-4.9657,-4.923,-4.9381
92.3263,-4.7273,-4.8997,-4.4015
92.3649,-5.1468,-4.5486,-4.5455
92.4036,-4.6129,-5.138,-4.3429
92.4422,-5.0421,-4.6001,-4.5986
92.4809,-4.5181,-4.658,-5.151
92.5195,-4.649,-5.3705,-4.7711
92.5582,-4.6886,-4.6474,-4.5095
92.5968,-4.7751,-4.93,-4.5851
92.6355,-4.6626,-4.6564,-4.9744
92.6741,-4.6515,-4.6427,-4.779
92.7127,-4.8077,-4.7534,-4.3935
92.7514,-4.5322,-4.4512,-4.6292
92.79,-4.6271,-4.8316,-4.8335
92.8287,-5.3968,-4.5195,-4.6657
92.8673,-4.7279,-4.7148,-4.6845
92.906,-4.5043,-4.8748,-4.2731
92.9446,-4.7292,-4.7916,-4.7486
92.9833,-4.6313,-4.5418,-4.286
93.0219,-4.9664,-4.5597,-4.6268
93.0606,-4.9169,-4.7162,-4.977
93.0992,-4.9702,-4.8689,-4.4767
93.1379,-5.0154,-5.4569,-4.4736
93.1765,-4.6515,-4.9634,-4.3307
93.2152,-4.7529,-4.7125,-4.5684
93.2538,-4.8286,-5.2517,-4.5086
93.2924,-4.4756,-4.7176,-4.556
93.3311,-4.6202,-4.6655,-4.5557
93.3697,-5.0411,-4.7909,-4.7132
93.4084,-4.6062,-6.0666,-4.4311
93.447,-4.6575,-4.8912,-4.7029
93.4857,-4.585,-4.58,-5.0714
93.5243,-5.256,-5.0038,-4.7535
93.563,-4.8255,-4.7377,-4.2896
93.6016,-4.9606,-4.4456,-4.7283
93.6403,-4.7202,-5.1713,-4.7108
93.6789,-4.6317,-4.74,-5.031
93.7176,-5.1006,-4.619,-4.5081
93.7562,-4.9132,-4.8442,-4.4422
93.7948,-5.0192,-5.1001,-5.3459
93.8335,-4.6878,-4.4677,-4.6203
93.8721,-4.806,-4.7142,-4.5113
93.9108,-4.8834,-4.8811,-4.5982
93.9494,-4.7573,-4.5877,-4.2675
93.9881,-4.8886,-5.6121,-4.4919
94.0267,-5.0265,-4.6811,-4.1442
94.0654,-4.5065,-5.0566,-4.771
94.104,-4.8866,-4.7102,-4.4597
94.1427,-4.6019,-4.9477,-4.4893
94.1813,-4.8462,-4.5781,-4.5852
94.22,-4.5906,-4.5941,-4.5174
94.2586,-4.9705,-5.0201,-4.4272
94.2973,-4.8469,-4.5591,-4.5335
94.3359,-4.8864,-4.7911,-4.6071
94.3745,-4.8396,-4.7715,-4.2842
94.4132,-4.7683,-5.0519,-5.5223
94.4518,-5.0557,-4.7029,-4.3573
94.4905,-4.695,-5.3096,-4.6483
94.5291,-4.686,-5.0332,-4.3573
94.5678,-4.8409,-6.2504,-4.5992
94.6064,-4.7676,-4.4547,-4.4341
94.6451,-4.6739,-4.7019,-4.4137
94.6837,-4.9879,-5.1218,-4.3625
94.7224,-4.825,-5.0674,-4.4009
94.761,-4.7193,-4.8254,-5.2771
94.7997,-4.9521,-4.8429,-4.5741
94.8383,-5.0678,-4.9874,-4.4812
94.8769,-5.3892,-4.6729,-5.1293
94.9156,-4.9464,-5.0531,-4.2092
94.9542,-4.7878,-4.7679,-4.3785
94.9929,-4.7314,-4.8781,-4.8533
95.0315,-4.752,-4.7389,-4.8505
95.0702,-4.9898,-4.9365,-4.8544
95.1088,-4.7156,-5.0647,-4.8769
95.1475,-4.6742,-4.5283,-4.5583
95.1861,-4.8827,-4.6465,-4.7798
95.2248,-5.1469,-5.2662,-4.5205
95.2634,-4.9463,-4.979,-4.8578
95.3021,-4.9155,-4.7774,-4.5752
95.3407,-4.7236,-4.4789,-4.3499
95.3794,-4.7052,-5.3974,-4.5117
95.418,-4.7195,-4.9006,-5.302
95.4566,-4.8871,-4.6445,-4.5386
95.4953,-4.7402,-4.9339,-5.021
95.5339,-4.799,-4.6969,-4.3957
95.5726,-5.2304,-4.8846,-5.115
95.6112,-4.8437,-4.8041,-4.9036
95.6499,-4.7668,-4.7407,-4.3781
95.6885,-4.8794,-4.7287,-4.681
95.7272,-4.5874,-4.5016,-4.5104
95.7658,-5.0253,-4.9728,-4.9876
95.8045,-4.8851,-5.0682,-4.7142
95.8431,-4.9912,-4.7893,-4.5028
95.8818,-5.2824,-4.6351,-4.5126
95.9204,-5.0064,-4.8091,-4.4696
95.959,-4.5871,-4.64,-4.7049
95.9977,-4.7607,-4.8415,-4.2639
96.0363,-4.6433,-4.5523,-4.507
96.075,-4.5165,-4.4617,-4.9496
96.1136,-5.0212,-4.9861,-4.6068
96.1523,-5.2429,-4.6161,-4.4522
96.1909,-5.1613,-4.8748,-4.7493
96.2296,-4.5579,-5.0423,-4.942
96.2682,-4.6502,-4.7943,-4.9653
96.3069,-4.9957,-4.7653,-4.3976
96.3455,-4.6737,-5.0654,-4.5453
96.3842,-4.8387,-4.7481,-4.5961
96.4228,-4.8263,-4.854,-4.9677
96.4615,-5.0836,-4.6567,-4.4981
96.5001,-5.0158,-5.3347,-4.4669
96.5387,-4.9287,-5.0967,-4.3937
96.5774,-4.609,-4.7207,-4.4599
96.616,-4.6594,-4.7737,-4.5749
96.6547,-5.1521,-5.0424,-4.8525
96.6933,-5.0557,-4.8179,-4.6984
96.732,-5.316,-5.2097,-4.5114
96.7706,-4.6985,-4.9161,-4.7094
96.8093,-4.7723,-4.7157,-4.6157
96.8479,-5.2604,-4.9718,-4.3482
96.8866,-4.5494,-4.7656,-5.1119
96.9252,-4.8276,-5.122,-4.7717
96.9639,-5.6264,-4.6669,-4.4634
97.0025,-4.692,-4.8331,-4.5652
97.0411,-4.7797,-4.8321,-4.8588
97.0798,-5.0298,-4.5013,-4.5937
97.1184,-4.9142,-4.7734,-4.5271
97.1571,-5.0125,-4.752,-4.4949
97.1957,-4.5668,-4.5953,-5.0053
97.2344,-4.6208,-4.6698,-4.6729
97.273,-4.9822,-4.6269,-4.4648
97.3117,-4.7117,-4.7446,-4.6118
97.3503,-4.7599,-4.4903,-4.8093
97.389,-4.8881,-5.0432,-4.5762
97.4276,-5.3696,-5.112,-4.7799
97.4663,-4.8882,-5.0592,-4.433
97.5049,-4.9859,-4.9994,-4.5489
97.5435,-5.0214,-4.6336,-4.1925
97.5822,-4.5943,-4.5765,-4.5879
97.6208,-4.7295,-4.7775,-4.3571
97.6595,-4.9603,-5.0586,-4.4847
97.6981,-4.7306,-4.9647,-4.9905
97.7368,-4.5632,-4.8623,-4.5834
97.7754,-4.6394,-4.5591,-4.9867
97.8141,-4.936,-5.8953,-4.7545
97.8527,-4.6297,-5.3044,-4.5714
97.8914,-4.827,-4.5584,-4.4284
97.93,-4.8049,-5.1109,-4.9261
97.9687,-4.7604,-4.7004,-4.6427
98.0073,-4.5799,-4.6911,-4.7242
98.046,-4.9409,-5.1273,-4.5637
98.0846,-4.8525,-5.0698,-4.501
98.1232,-4.8107,-4.7872,-4.5999
98.1619,-5.0318,-4.5249,-5.628
98.2005,-5.2413,-4.7556,-4.3986
98.2392,-4.8936,-4.6186,-4.8023
98.2778,-4.9153,-4.9141,-4.6278
98.3165,-4.5964,-4.6273,-4.6958
98.3551,-5.364,-5.0243,-4.5753
98.3938,-4.6606,-4.6905,-4.6886
98.4324,-5.2308,-5.1944,-4.6481
98.4711,-4.5595,-4.712,-4.7086
98.5097,-4.9376,-4.8317,-4.6048
98.5484,-4.8082,-4.7371,-4.3575
98.587,-4.8753,-4.5606,-4.9046
98.6256,-5.232,-6.5124,-4.6614
98.6643,-4.8674,-4.8857,-4.6344
98.7029,-4.601,-5.1242,-4.5845
98.7416,-4.8634,-4.8427,-4.2791
98.7802,-4.9458,-5.5438,-4.761
98.8189,-5.5533,-4.7391,-4.5461
98.8575,-4.6306,-5.3058,-4.7037
98.8962,-4.5515,-4.841,-4.3257
98.9348,-4.9012,-4.4953,-4.5705
98.9735,-5.0346,-4.6779,-5.163
99.0121,-4.8954,-4.6363,-4.3153
99.0508,-4.8609,-4.7992,-4.5341
99.0894,-4.8028,-5.2084,-4.9062
99.1281,-4.8732,-4.9578,-4.6287
99.1667,-4.6467,-5.4893,-4.8022
99.2053,-5.4597,-4.8797,-4.785
99.244,-4.8709,-5.1601,-4.7735
99.2826,-4.8418,-4.7745,-4.4758
99.3213,-4.7932,-5.0523,-4.5179
99.3599,-4.918,-4.6433,-4.4693
99.3986,-4.8985,-4.7688,-4.5979
99.4372,-4.6427,-5.0883,-4.5385
99.4759,-4.6182,-4.4646,-4.5525
99.5145,-5.3706,-5.1134,-4.5894
99.5532,-4.6499,-4.8602,-4.3711
99.5918,-4.6859,-4.764,-5.61
99.6305,-4.5853,-4.6293,-4.5229
99.6691,-4.8226,-4.6701,-5.3709
99.7077,-4.7354,-4.849,-4.8584
99.7464,-5.2786,-5.0519,-4.7502
99.785,-5.0487,-4.8744,-4.3037
99.8237,-5.4196,-5.0247,-4.6774
99.8623,-5.024,-4.8469,-4.6788
99.901,-4.9802,-4.7669,-4.8347
99.9396,-4.5876,-4.8115,-4.338
99.9783,-4.7329,-4.4799,-4.0623
100.0169,-5.3337,-5.4365,-4.3414
100.0556,-4.8403,-4.643,-4.3747
100.0942,-4.5738,-5.0343,-4.5332
100.1329,-4.9216,-5.2307,-4.4133
100.1715,-4.6318,-5.0002,-4.5861
100.2102,-4.9541,-4.9414,-4.8019
100.2488,-4.9545,-4.6662,-4.3599
100.2874,-5.5853,-4.9413,-4.4945
100.3261,-4.9231,-5.0891,-4.6913
100.3647,-4.9856,-6.0221,-4.5741
100.4034,-5.0337,-4.7749,-5.4214
100.442,-5.1071,-4.829,-4.6771
100.4807,-4.6909,-4.667,-4.4455
100.5193,-4.9643,-4.8491,-4.7801
100.558,-4.6211,-5.006,-4.3998
100.5966,-4.8428,-4.4312,-4.31
100.6353,-4.6299,-4.7165,-4.5421
100.6739,-4.7071,-4.7973,-4.2543
100.7126,-5.2052,-4.9088,-4.6225
100.7512,-6.153,-4.8448,-4.6807
100.7898,-4.7353,-4.7191,-5.0012
100.8285,-4.9732,-4.5453,-4.6814
100.8671,-4.6651,-4.7933,-5.1702
100.9058,-4.6891,-4.6629,-4.2619
100.9444,-4.6421,-4.6738,-4.4654
100.9831,-4.6921,-5.3037,-4.9328
101.0217,-5.0761,-5.4169,-4.6233
101.0604,-4.8514,-4.6031,-4.4723
101.099,-4.8194,-4.7336,-4.6489
101.1377,-4.7209,-4.979,-4.5768
101.1763,-5.0561,-5.1887,-4.6558
101.215,-4.8152,-4.9961,-4.6523
101.2536,-4.845,-5.0971,-4.5807
101.2923,-4.6134,-4.8253,-4.4419
101.3309,-5.0766,-5.1886,-5.2466
101.3695,-4.9754,-4.847,-4.4389
101.4082,-4.7499,-5.0174,-4.4325
101.4468,-5.3506,-4.9872,-4.7333
101.4855,-5.1055,-5.0758,-4.5291
101.5241,-4.6122,-4.8156,-4.5063
101.5628,-4.7571,-5.2871,-4.6966
101.6014,-4.6731,-4.9636,-4.8534
101.6401,-4.8343,-4.8417,-4.4086
101.6787,-4.6651,-4.6993,-4.9016
101.7174,-5.2754,-4.7409,-4.3654
101.756,-4.7158,-4.759,-4.6986
101.7947,-4.642,-4.7364,-4.2824
101.8333,-5.2321,-5.176,-4.8615
101.8719,-5.8175,-4.8501,-4.4407
101.9106,-5.0269,-4.5962,-4.4113
101.9492,-4.5935,-4.7229,-4.6158
101.9879,-4.7884,-4.6539,-4.5287
102.0265,-4.8273,-4.8442,-4.7799
102.0652,-4.7864,-4.7262,-4.9886
102.1038,-4.9045,-6.3148,-4.5831
102.1425,-4.7072,-4.646,-4.6989
102.1811,-4.8698,-4.8096,-4.7203
102.2198,-5.3999,-4.8768,-4.8919
102.2584,-4.7058,-4.6678,-4.7807
102.2971,-4.5525,-4.9103,-4.282
102.3357,-4.6942,-4.5051,-4.6712
102.3744,-5.2154,-5.2643,-4.6875
102.413,-4.8531,-4.8378,-4.5353
102.4516,-5.554,-5.2378,-4.9106
102.4903,-4.5758,-4.6106,-4.6845
102.5289,-4.4738,-5.3754,-4.7792
102.5676,-4.7449,-5.1841,-4.8827
102.6062,-4.5908,-4.4603,-5.0528
102.6449,-4.8509,-4.7247,-4.3994
102.6835,-4.6391,-4.9039,-4.5011
102.7222,-5.8355,-4.7345,-4.5663
102.7608,-5.2525,-4.7161,-5.491
102.7995,-4.8684,-5.2499,-4.8562
102.8381,-5.0539,-5.0209,-5.3889
102.8768,-4.7219,-5.3046,-4.48
102.9154,-4.8206,-5.5934,-4.9639
102.954,-5.0268,-5.3058,-4.753
102.9927,-5.0652,-4.9712,-4.5937
103.0313,-4.6379,-4.7149,-4.4507
103.07,-5.1491,-4.7973,-4.6028
103.1086,-4.98,-4.656,-4.6235
103.1473,-4.8651,-4.5334,-4.9021
103.1859,-4.6131,-4.5098,-4.8702
103.2246,-6.0272,-5.0704,-4.839
103.2632,-4.8303,-5.1364,-4.4068
103.3019,-5.4488,-4.9354,-4.8159
103.3405,-4.8137,-5.3024,-4.4573
103.3792,-4.7705,-5.0343,-4.5503
103.4178,-5.1589,-4.6019,-4.8059
103.4565,-5.1971,-5.1359,-4.6383
103.4951,-4.5034,-4.5538,-6.0993
103.5337,-5.1843,-4.6494,-4.4126
103.5724,-4.7659,-5.0543,-4.2442
103.611,-4.7089,-5.103,-5.1217
103.6497,-5.1089,-5.1108,-4.7543
103.6883,-4.5367,-4.7395,-5.2942
103.727,-4.9344,-4.4671,-4.5785
103.7656,-4.6026,-4.9838,-4.6342
103.8043,-5.6152,-4.6108,-4.4329
103.8429,-4.5668,-4.992,-4.8603
103.8816,-4.6286,-5.1845,-4.8111
103.9202,-4.9801,-4.9038,-5.0782
103.9589,-4.783,-4.473,-4.7928
103.9975,-4.7363,-4.7944,-4.465
104.0361,-5.1109,-5.0186,-4.9233
104.0748,-5.1631,-5.1393,-5.4101
104.1134,-4.6937,-4.7623,-4.726
104.1521,-4.6589,-4.7334,-4.4973
104.1907,-4.9976,-5.0889,-4.3538
104.2294,-4.7615,-4.9282,-4.5932
104.268,-4.7402,-5.0829,-4.4881
104.3067,-4.9309,-4.9034,-5.828
104.3453,-4.7537,-4.7448,-4.8127
104.384,-4.6762,-5.1577,-4.8616
104.4226,-4.8545,-4.6032,-5.0658
104.4613,-5.4748,-4.7161,-5.0262
104.4999,-4.8687,-4.7459,-5.2279
104.5386,-4.9562,-4.9746,-4.2879
104.5772,-5.0399,-5.2102,-4.509
104.6158,-4.9051,-4.7724,-4.8601
104.6545,-5.1712,-4.9622,-4.4114
104.6931,-4.5925,-4.6108,-4.7563
104.7318,-4.8251,-4.9503,-5.0085
104.7704,-4.9495,-5.1704,-4.5335
104.8091,-4.8374,-4.8896,-4.5029
104.8477,-4.99,-4.7207,-4.3205
104.8864,-4.836,-4.659,-4.7483
104.925,-4.7547,-5.2538,-4.601
104.9637,-4.757,-4.8806,-4.4865
105.0023,-5.2388,-5.4962,-4.4853
105.041,-4.741,-4.7797,-4.3222
105.0796,-4.9014,-4.7056,-4.4201
105.1182,-4.9635,-4.8235,-4.6035
105.1569,-5.4758,-4.7603,-4.4754
105.1955,-4.8268,-5.0247,-4.6369
105.2342,-5.0733,-4.7917,-4.4865
105.2728,-4.9768,-5.1584,-4.9274
105.3115,-5.6626,-5.0499,-4.9358
105.3501,-5.0916,-4.7184,-4.7158
105.3888,-4.5196,-4.4795,-5.2608
105.4274,-4.9288,-4.891,-4.8985
105.4661,-4.7378,-4.7606,-4.9383
105.5047,-4.7084,-4.655,-5.3041
105.5434,-4.7318,-4.8008,-4.5121
105.582,-4.6619,-4.9314,-5.0825
105.6207,-4.9817,-4.6071,-4.4235
105.6593,-5.7807,-4.8565,-5.2801
105.6979,-4.8806,-5.1299,-4.6729
105.7366,-4.7778,-4.6792,-4.4452
105.7752,-4.7859,-4.9344,-4.74
105.8139,-4.9117,-4.8427,-4.6592
105.8525,-4.4635,-5.0351,-4.5566
105.8912,-4.8435,-5.0569,-4.6845
105.9298,-5.0144,-4.8071,-4.4749
105.9685,-5.0966,-5.2275,-4.2723
106.0071,-5.1958,-5.0706,-4.395
106.0458,-5.4242,-5.2924,-5.0984
106.0844,-5.1979,-4.9786,-4.6283
106.1231,-4.7096,-4.7126,-4.4637
106.1617,-5.3914,-5.0354,-4.4096
106.2003,-4.9508,-4.5309,-4.5999
106.239,-4.9326,-4.8085,-4.8497
106.2776,-4.5793,-4.7249,-4.3548
106.3163,-5.0648,-4.6384,-4.8813
106.3549,-4.5619,-4.7048,-4.6512
106.3936,-4.783,-5.0274,-5.1965
106.4322,-4.7685,-5.1904,-4.7524
106.4709,-4.5807,-4.9033,-5.5042
106.5095,-4.7064,-4.7008,-4.5853
106.5482,-5.1733,-5.0526,-4.699
106.5868,-5.1087,-5.3829,-4.8178
106.6255,-4.9309,-5.2353,-5.0972
106.6641,-4.6677,-5.008,-5.0371
106.7027,-5.3387,-6.0851,-5.2495
106.7414,-5.2759,-4.5475,-4.9882
106.78,-4.6349,-4.693,-4.9337
106.8187,-5.2519,-4.8682,-4.7988
106.8573,-4.672,-4.6901,-5.0662
106.896,-4.8457,-5.0428,-5.144
106.9346,-4.7632,-4.8505,-4.7885
106.9733,-4.7871,-4.6305,-4.3893
107.0119,-5.0326,-6.3188,-4.4265
107.0506,-5.0994,-4.8589,-4.4798
107.0892,-4.7361,-4.5511,-4.5143
107.1279,-4.7338,-4.841,-4.1546
107.1665,-5.0793,-4.7411,-5.0782
107.2052,-4.5459,-4.5914,-4.7264
107.2438,-5.1337,-5.085,-4.5401
107.2824,-5.2592,-4.6197,-4.751
107.3211,-5.4782,-4.683,-4.7811
107.3597,-4.6365,-4.5971,-5.1544
107.3984,-4.8161,-4.8624,-4.7145
107.437,-5.142,-5.1932,-5.3537
107.4757,-4.602,-5.0099,-4.5869
107.5143,-5.6619,-4.9833,-4.6866
107.553,-4.9667,-5.1141,-5.6183
107.5916,-4.7957,-4.9588,-4.8314
107.6303,-4.8084,-5.1118,-4.8762
107.6689,-4.8784,-5.1368,-4.7267
107.7076,-4.5951,-5.1316,-4.4627
107.7462,-4.909,-5.102,-4.4738
107.7848,-4.9457,-4.5988,-4.552
107.8235,-4.9742,-4.8577,-4.6045
107.8621,-5.1461,-5.4498,-4.731
107.9008,-5.3658,-5.0548,-5.0841
107.9394,-4.9191,-5.4528,-4.4379
107.9781,-4.8182,-4.6898,-4.4493
108.0167,-4.57,-4.8146,-6.7455
108.0554,-5.0938,-5.0782,-4.7734
108.094,-5.0204,-4.9226,-5.6281
108.1327,-4.6666,-4.8979,-4.4795
108.1713,-4.5757,-4.8521,-4.6709
108.21,-4.657,-4.679,-5.1278
108.2486,-5.2856,-5.2072,-4.7041
108.2873,-4.5816,-4.9656,-4.4772
108.3259,-4.6519,-5.2587,-5.4035
108.3645,-5.0032,-5.2987,-4.2839
108.4032,-4.9792,-4.8994,-4.5139
108.4418,-4.744,-4.8703,-4.6583
108.4805,-4.6664,-4.8092,-4.5328
108.5191,-5.0511,-4.7899,-4.4214
108.5578,-4.9355,-5.0404,-5.7283
108.5964,-4.7051,-5.0272,-5.2924
108.6351,-4.7552,-4.9707,-4.7461
108.6737,-4.6461,-4.7467,-4.3253
108.7124,-4.8415,-5.0863,-4.8334
108.751,-4.7472,-5.484,-4.9094
108.7897,-4.913,-5.1699,-4.4849
108.8283,-4.8931,-4.893,-4.8462
108.8669,-4.9056,-4.6131,-5.2984
108.9056,-4.7123,-4.8047,-4.7589
108.9442,-4.9615,-5.2704,-5.3418
108.9829,-5.2345,-5.085,-4.5276
109.0215,-4.842,-5.0902,-4.7533
109.0602,-4.9885,-5.3324,-4.7048
109.0988,-4.8573,-4.745,-4.3121
109.1375,-4.8652,-4.9879,-4.9165
109.1761,-4.6125,-5.333,-4.4535
109.2148,-5.0153,-4.9699,-4.877
109.2534,-5.087,-4.7056,-4.6751
109.2921,-4.8342,-4.7791,-4.6691
109.3307,-4.7639,-4.6759,-4.7795
109.3694,-4.9351,-4.7253,-4.5742
109.408,-4.9583,-5.3954,-4.5161
109.4466,-5.0088,-4.9132,-4.4147
109.4853,-4.8388,-4.9018,-4.5169
109.5239,-4.4929,-4.6584,-4.5504
109.5626,-4.6445,-5.3672,-4.8321
109.6012,-4.7567,-5.1008,-4.8421
109.6399,-5.1584,-4.7053,-4.6005
109.6785,-4.696,-4.9237,-4.3818
109.7172,-5.4919,-4.707,-4.7919
109.7558,-5.258,-4.9291,-5.1929
109.7945,-4.8513,-4.8316,-4.7464
109.8331,-4.7709,-4.5063,-4.5947
109.8718,-4.9531,-4.6919,-4.8407
109.9104,-4.4899,-4.2042,-4.4378
109.949,-4.6068,-4.2005,-4.1411
109.9877,-4.5291,-4.3374,-4.3729
110.0263,-5.0235,-4.7897,-4.3769
110.065,-4.7735,-4.7102,-4.5212
110.1036,-4.5409,-4.8288,-4.9566
110.1423,-4.9398,-4.7248,-4.7132
110.1809,-4.8734,-4.9412,-4.4524
110.2196,-5.0312,-5.3697,-4.4993
110.2582,-5.1263,-5.1194,-4.5693
110.2969,-4.9192,-5.0713,-5.3975
110.3355,-4.6785,-4.6615,-4.8429
110.3742,-4.9573,-4.9018,-4.4157
110.4128,-4.8768,-4.8267,-4.6219
110.4515,-4.5751,-4.8483,-4.6639
110.4901,-5.0992,-5.7735,-4.5801
110.5287,-4.6598,-4.5623,-4.5225
110.5674,-4.6759,-4.5411,-4.789
110.606,-4.8263,-4.8408,-4.799
110.6447,-4.833,-4.9088,-4.5907
110.6833,-4.9531,-4.9645,-4.5092
110.722,-4.9479,-4.4994,-4.5487
110.7606,-4.5349,-4.6807,-4.9289
110.7993,-5.0506,-4.7848,-4.9393
110.8379,-5.2641,-4.8228,-5.0243
110.8766,-4.8749,-4.8836,-4.4982
110.9152,-5.0817,-4.6668,-4.7522
110.9539,-5.1855,-4.6537,-4.8568
110.9925,-4.7054,-4.7758,-4.8632
111.0311,-4.9373,-4.9939,-4.771
111.0698,-4.7289,-4.9308,-4.6268
111.1084,-5.0958,-5.015,-4.5715
111.1471,-4.9696,-4.9816,-4.7688
111.1857,-4.8907,-4.8014,-5.0599
111.2244,-5.0711,-4.9714,-4.6969
111.263,-5.1506,-4.8158,-4.7634
111.3017,-4.8763,-5.1054,-4.3533
111.3403,-4.7117,-5.0999,-5.0829
111.379,-4.5729,-4.8105,-4.573
111.4176,-4.86,-4.8746,-4.7775
111.4563,-5.0392,-4.9447,-4.6318
111.4949,-4.8792,-4.8712,-4.8505
111.5336,-5.0892,-4.8129,-4.7195
111.5722,-4.9357,-4.7113,-4.7901
111.6108,-4.7439,-4.8693,-4.5974
111.6495,-5.4065,-4.8622,-4.6626
111.6881,-5.0322,-4.9065,-4.4433
111.7268,-4.6242,-4.829,-4.6774
111.7654,-4.9423,-4.8931,-4.8469
111.8041,-4.9887,-5.2718,-4.9468
111.8427,-4.7004,-5.5389,-5.2483
111.8814,-5.4586,-4.5836,-4.5062
111.92,-4.7779,-4.8433,-5.0089
111.9587,-4.9138,-5.1551,-4.664
111.9973,-5.2203,-5.0567,-5.0748
112.036,-4.6968,-4.7078,-4.5297
112.0746,-4.7356,-4.5939,-4.879
112.1132,-4.6978,-5.1082,-4.6113
112.1519,-5.0207,-4.8722,-5.0269
112.1905,-4.6927,-4.6931,-4.3925
112.2292,-4.6157,-4.9508,-4.5694
112.2678,-4.6714,-4.8562,-4.6058
112.3065,-4.8415,-4.8419,-4.5474
112.3451,-5.0062,-4.8602,-5.7861
112.3838,-4.892,-4.8596,-4.6602
112.4224,-4.854,-4.5477,-4.8472
112.4611,-4.9186,-4.7395,-4.4345
112.4997,-5.1126,-4.5507,-4.721
112.5384,-5.6586,-4.8523,-4.8836
112.577,-4.8181,-4.8044,-4.405
112.6157,-4.9557,-5.0752,-4.697
112.6543,-5.0545,-4.643,-4.6029
112.6929,-4.8461,-4.7888,-4.5574
112.7316,-5.3458,-5.4665,-5.2229
112.7702,-5.0003,-4.6982,-4.6066
112.8089,-5.0035,-4.94,-4.7368
112.8475,-4.8337,-4.7559,-4.3093
112.8862,-4.6614,-4.7525,-5.4893
112.9248,-4.819,-4.7687,-4.7327
112.9635,-4.693,-5.001,-4.7448
113.0021,-4.6148,-4.8411,-4.7835
113.0408,-5.4635,-5.0045,-4.772
113.0794,-5.2428,-4.9449,-5.2817
113.1181,-5.0571,-4.8489,-4.6757
113.1567,-4.8523,-4.8258,-4.7661
113.1953,-4.6186,-4.7068,-4.6278
113.234,-4.6251,-4.7128,-5.0738
113.2726,-5.2751,-4.8202,-4.7531
113.3113,-5.0646,-5.2678,-4.597
113.3499,-4.9546,-5.017,-4.3754
113.3886,-4.5918,-4.6452,-5.102
113.4272,-4.8879,-4.8484,-4.6671
113.4659,-5.2521,-4.6041,-4.6635
113.5045,-4.5774,-4.5728,-4.6677
113.5432,-5.3434,-4.6441,-4.4899
113.5818,-5.206,-4.99,-4.9698
113.6205,-5.1817,-4.9552,-4.5208
113.6591,-4.9334,-4.7868,-4.8223
113.6978,-5.2042,-4.7364,-4.581
113.7364,-4.8344,-5.0666,-5.1764
113.775,-5.4094,-4.8674,-4.6057
113.8137,-4.7433,-5.3935,-4.3411
113.8523,-4.8864,-5.612,-4.9855
113.891,-4.8661,-5.2713,-4.9909
113.9296,-4.48,-4.867,-4.6923
113.9683,-5.2358,-4.8054,-4.6278
114.0069,-5.0745,-5.0726,-4.4023
114.0456,-5.174,-5.1781,-5.0089
114.0842,-5.493,-5.0674,-4.6667
114.1229,-4.6099,-4.86,-4.5001
114.1615,-4.5932,-4.5987,-4.3904
114.2002,-4.8446,-4.6572,-4.8576
114.2388,-5.2321,-4.7669,-4.4259
114.2774,-4.7327,-4.5814,-4.6841
114.3161,-5.2303,-4.8893,-4.8442
114.3547,-4.8594,-4.8692,-4.6455
114.3934,-4.6388,-4.594,-4.7678
114.432,-4.8534,-4.8041,-4.5234
114.4707,-5.0287,-4.7114,-5.1136
114.5093,-4.9251,-4.8008,-5.0433
114.548,-4.7443,-4.8058,-4.6582
114.5866,-5.6789,-5.026,-5.0683
114.6253,-4.7122,-4.8037,-5.1064
114.6639,-5.2504,-4.6872,-4.8589
114.7026,-4.851,-4.5928,-4.6807
114.7412,-4.6883,-4.9615,-4.6513
114.7799,-4.7532,-4.5934,-4.4749
114.8185,-4.8446,-4.9325,-4.6762
114.8571,-4.7225,-4.8632,-4.3426
114.8958,-4.658,-4.5851,-4.407
114.9344,-4.8043,-4.9394,-4.4425
114.9731,-4.7129,-4.8266,-6.0202
115.0117,-4.4671,-4.8505,-4.5455
115.0504,-4.4998,-4.8017,-4.4212
115.089,-4.8699,-5.071,-4.7992
115.1277,-4.4643,-4.7156,-5.0064
115.1663,-4.614,-5.3502,-4.4724
115.205,-4.6845,-4.7933,-4.8431
115.2436,-4.7064,-4.7491,-4.4103
115.2823,-4.8073,-5.0141,-4.4784
115.3209,-4.5608,-5.4522,-4.4411
115.3595,-5.1511,-4.7219,-4.3039
115.3982,-5.1137,-4.9061,-5.6518
115.4368,-4.557,-4.487,-4.636
115.4755,-5.5454,-4.9485,-4.4636
115.5141,-4.6621,-4.8566,-4.4009
115.5528,-5.835,-5.1933,-4.2472
115.5914,-4.7431,-4.7343,-4.4899
115.6301,-4.7462,-4.7889,-4.3921
115.6687,-4.6463,-4.7346,-4.5619
115.7074,-4.7449,-5.3648,-4.9596
115.746,-5.0512,-5.6763,-4.9924
115.7847,-4.7426,-4.9637,-4.4706
115.8233,-4.6701,-4.7984,-4.3188
115.862,-4.8255,-4.5994,-4.7526
115.9006,-4.8188,-5.3337,-4.8858
115.9392,-5.0288,-4.9894,-4.6333
115.9779,-4.6492,-4.6277,-4.3515
116.0165,-5.1935,-4.7175,-4.787
116.0552,-4.8574,-4.8306,-4.5374
116.0938,-4.6511,-4.7006,-4.7317
116.1325,-4.8047,-4.8578,-4.9022
116.1711,-4.981,-5.335,-4.7234
116.2098,-4.8103,-4.8667,-5.6969
116.2484,-5.4269,-5.0863,-4.7951
116.2871,-4.9886,-5.0225,-5.0153
116.3257,-4.9637,-4.9084,-4.8637
116.3644,-4.9578,-4.9838,-5.407
116.403,-5.7454,-4.9969,-5.1668
116.4416,-5.0734,-5.03,-4.6277
116.4803,-4.6391,-5.0654,-4.5863
116.5189,-5.1815,-5.3395,-4.8117
116.5576,-4.6122,-4.4212,-4.819
116.5962,-4.7295,-4.5001,-5.0948
116.6349,-4.9621,-4.6954,-4.4072
116.6735,-4.8973,-5.0753,-4.5064
116.7122,-5.0042,-4.4206,-4.7875
116.7508,-4.5869,-4.5417,-4.3395
116.7895,-4.9522,-4.7673,-4.661
116.8281,-4.8429,-4.6599,-4.9785
116.8668,-4.5385,-4.6042,-4.5303
116.9054,-4.7403,-4.9886,-4.2011
116.944,-4.9576,-4.897,-4.9669
116.9827,-4.891,-4.7575,-4.5674
117.0213,-4.8652,-4.7532,-4.831
117.06,-4.5965,-4.5203,-5.0387
117.0986,-4.7888,-4.5262,-4.5423
117.1373,-4.7687,-4.4881,-4.5853
117.1759,-4.8625,-4.6502,-4.5414
117.2146,-4.7083,-4.7637,-5.2446
117.2532,-4.8394,-4.6897,-4.6947
117.2919,-5.1557,-5.2935,-4.9859
117.3305,-4.7102,-4.7691,-4.7132
117.3692,-5.0045,-4.6903,-4.9262
117.4078,-4.7973,-4.7098,-5.0283
117.4465,-4.957,-4.7559,-4.6041
117.4851,-4.6359,-4.9528,-5.4724
117.5237,-5.1012,-5.4024,-4.8223
117.5624,-4.7308,-5.0163,-4.7646
117.601,-4.6537,-4.5885,-5.1153
117.6397,-5.9091,-5.1764,-5.1046
117.6783,-4.8274,-5.4399,-5.157
117.717,-5.0816,-4.9535,-4.6077
117.7556,-4.4342,-4.5505,-4.6519
117.7943,-5.1196,-4.658,-4.5584
117.8329,-4.8112,-4.8336,-4.6431
117.8716,-4.986,-4.4842,-4.4821
117.9102,-5.3415,-4.7398,-4.7566
117.9489,-4.5461,-4.7869,-4.3731
117.9875,-5.2361,-4.63,-4.506
118.0261,-4.6358,-4.9198,-4.6946
118.0648,-5.3841,-4.7882,-4.5075
118.1034,-4.9124,-4.6174,-4.5792
118.1421,-4.9539,-5.0126,-4.9234
118.1807,-5.3067,-4.9911,-4.8846
118.2194,-4.7222,-4.5126,-4.9603
118.258,-4.7992,-4.572,-4.4669
118.2967,-4.9325,-4.6774,-4.7029
118.3353,-4.6188,-4.6693,-4.7015
118.374,-4.622,-4.6226,-4.439
118.4126,-4.4928,-4.644,-4.6088
118.4513,-4.9512,-4.5039,-4.6003
118.4899,-4.8001,-4.8752,-4.8003
118.5286,-4.9044,-4.491,-4.5861
118.5672,-5.2425,-5.6399,-4.5626
118.6058,-5.0656,-4.7522,-4.8204
118.6445,-4.5957,-4.7151,-4.4354
118.6831,-5.0334,-4.8423,-4.8251
118.7218,-4.8139,-4.5153,-4.4384
118.7604,-4.6298,-4.5132,-4.5507
118.7991,-4.8034,-4.391,-4.8935
118.8377,-4.7329,-4.6277,-4.5566
118.8764,-4.9351,-4.5601,-4.3376
118.915,-5.4351,-4.6858,-4.6199
118.9537,-4.6682,-5.2265,-4.9373
118.9923,-4.8989,-4.7551,-4.3603
119.031,-5.1702,-4.5718,-4.3918
119.0696,-4.6383,-4.5701,-4.6633
119.1082,-4.6435,-4.5332,-4.2438
119.1469,-4.7835,-4.3797,-4.6613
119.1855,-4.8037,-4.5085,-4.4116
119.2242,-4.433,-4.3996,-4.8106
119.2628,-4.5932,-4.3999,-4.3036
119.3015,-4.6367,-4.5739,-4.471
119.3401,-4.3696,-4.1655,-4.3958
119.3788,-4.5781,-4.2274,-4.695
119.4174,-4.5026,-4.3065,-4.4628
119.4561,-4.4826,-4.0976,-4.4481
119.4947,-4.4179,-4.2457,-4.2405
119.5334,-4.5345,-4.2942,-4.5075
119.572,-4.476,-4.1896,-4.882
119.6107,-4.3641,-4.0116,-4.2318
119.6493,-4.572,-4.266,-4.209
119.6879,-4.321,-3.9293,-4.2616
119.7266,-4.2431,-3.9274,-4.1002
119.7652,-4.06,-3.795,-4.0721
119.8039,-4.1048,-3.7416,-4.1113
119.8425,-4.1135,-3.7785,-3.9426
119.8812,-3.9968,-3.6703,-3.8326
119.9198,-3.3424,-2.9864,-3.2133
119.9585,-2.7124,-2.3613,-2.5712
119.9971,-3.276,-2.9301,-3.1005
120.0358,-3.9714,-3.6322,-3.9305
120.0744,-4.0073,-3.6577,-3.809
120.1131,-3.9697,-3.6175,-3.915
120.1517,-4.1918,-3.7787,-3.973
120.1903,-4.1774,-3.8399,-4.0629
120.229,-4.1665,-3.8594,-4.2342
120.2676,-4.3308,-4.0074,-4.2296
120.3063,-4.316,-4.0012,-4.0801
120.3449,-4.2193,-3.9918,-4.0945
120.3836,-4.4012,-4.132,-4.9771
120.4222,-4.4404,-4.1665,-4.0754
120.4609,-4.582,-4.1767,-4.2064
120.4995,-4.4837,-4.1479,-4.3303
120.5382,-4.7138,-4.2516,-4.4283
120.5768,-4.6605,-4.2506,-4.5874
120.6155,-4.4992,-4.192,-4.6269
120.6541,-4.4031,-4.2344,-4.3777
120.6928,-4.4935,-4.453,-4.4423
120.7314,-4.721,-4.3195,-4.9181
120.77,-4.6006,-4.3777,-5.2083
120.8087,-4.6713,-4.3061,-4.821
120.8473,-4.7018,-4.3918,-4.313
120.886,-4.882,-4.534,-4.5811
120.9246,-5.0665,-4.602,-4.4881
120.9633,-4.5985,-4.4803,-4.3323
121.0019,-4.6775,-4.5859,-4.8593
121.0406,-4.9018,-5.0336,-4.5829
121.0792,-4.6732,-4.439,-4.4553
121.1179,-5.2535,-4.603,-4.3762
121.1565,-5.0103,-4.706,-4.4639
121.1952,-4.6938,-4.7297,-4.3594
121.2338,-4.7773,-4.5264,-4.4411
121.2724,-5.0658,-5.1342,-4.5724
121.3111,-4.7986,-4.5801,-4.4943
121.3497,-4.6674,-4.5257,-4.501
121.3884,-5.1746,-4.6642,-4.8786
121.427,-4.5988,-4.7159,-4.8202
121.4657,-5.326,-5.0944,-4.5319
121.5043,-4.7631,-4.7404,-4.5841
121.543,-5.3719,-4.5617,-4.9122
121.5816,-5.4257,-4.6915,-4.542
121.6203,-5.1701,-4.612,-4.5118
121.6589,-5.1459,-5.0398,-4.7081
121.6976,-4.8995,-4.7983,-4.3769
121.7362,-4.6342,-4.7656,-5.073
121.7749,-4.6367,-4.5059,-4.4424
121.8135,-5.4897,-4.5859,-4.4802
121.8521,-4.7508,-4.7345,-4.6215
121.8908,-4.9732,-4.8706,-5.4971
121.9294,-4.964,-4.988,-4.9851
121.9681,-5.3171,-4.8952,-4.8525
122.0067,-5.0651,-4.7336,-4.5192
122.0454,-4.8812,-4.8346,-4.8044
122.084,-4.4989,-4.9057,-5.0648
122.1227,-5.5706,-4.6458,-4.5952
122.1613,-4.8814,-4.5219,-5.3297
122.2,-4.5913,-4.4712,-4.4025
122.2386,-5.1943,-4.8155,-4.5339
122.2773,-5.3316,-5.1862,-4.7812
122.3159,-5.0155,-5.1487,-4.6785
122.3545,-4.8553,-4.5375,-4.9535
122.3932,-4.7064,-4.8705,-4.7382
122.4318,-5.6448,-4.4632,-4.5461
122.4705,-4.6294,-4.473,-4.4051
122.5091,-5.0018,-5.4638,-5.0083
122.5478,-5.4159,-5.0679,-4.7838
122.5864,-4.7758,-5.0917,-4.5378
122.6251,-4.8302,-4.686,-4.9566
122.6637,-4.7694,-4.9627,-4.6539
122.7024,-5.0807,-4.5647,-4.8491
122.741,-4.704,-4.6061,-4.7256
122.7797,-4.5148,-4.6545,-4.7223
122.8183,-4.9785,-4.8285,-4.349
122.857,-4.562,-4.4966,-4.778
122.8956,-5.1637,-5.0918,-4.7572
122.9342,-4.7275,-4.7945,-4.4694
122.9729,-4.8478,-4.9684,-4.7023
123.0115,-4.9462,-4.8074,-4.5667
123.0502,-4.8313,-4.7447,-4.6839
123.0888,-4.8365,-4.9254,-4.5649
123.1275,-4.9905,-5.031,-4.9491
123.1661,-5.2903,-4.8001,-4.4238
123.2048,-4.7674,-5.1159,-4.8969
123.2434,-4.6141,-4.3702,-4.6822
123.2821,-4.7305,-5.1735,-4.3089
123.3207,-4.7316,-4.7693,-4.6097
123.3594,-4.5743,-4.9184,-4.7014
123.398,-4.6408,-4.8235,-4.9563
123.4366,-4.6989,-4.7401,-4.9253
123.4753,-5.2405,-4.8525,-4.4255
123.5139,-5.9783,-4.9913,-4.545
123.5526,-4.7763,-4.5529,-4.9614
123.5912,-4.6994,-5.5336,-4.5449
123.6299,-5.249,-4.7618,-4.5642
123.6685,-4.9114,-4.5042,-4.7321
123.7072,-4.7693,-4.5529,-4.6977
123.7458,-4.7954,-4.6413,-4.5978
123.7845,-4.6963,-5.1972,-4.6588
123.8231,-5.0176,-4.94,-4.7581
123.8618,-4.9451,-4.6129,-4.7408
123.9004,-5.2726,-4.75,-4.5078
123.9391,-4.9569,-4.5133,-4.348
123.9777,-4.7662,-5.2624,-4.6175
124.0163,-4.7606,-4.9948,-4.7896
124.055,-4.808,-5.1143,-4.5188
124.0936,-4.8861,-4.7461,-4.4048
124.1323,-4.8923,-4.8101,-4.8468
124.1709,-4.9981,-5.1571,-4.7343
124.2096,-4.8997,-5.6466,-4.4149
124.2482,-4.7839,-5.0145,-5.219
124.2869,-4.88,-5.3722,-4.6513
124.3255,-5.0288,-4.6722,-4.1759
124.3642,-4.7785,-4.7523,-4.9497
124.4028,-5.2008,-5.0329,-4.2302
124.4415,-5.0348,-5.1543,-5.3442
124.4801,-5.4015,-4.6364,-4.9034
124.5187,-5.0999,-4.9406,-4.8612
124.5574,-4.6192,-4.8983,-5.0814
124.596,-4.6705,-4.8384,-4.3874
124.6347,-5.0135,-4.6937,-4.5451
124.6733,-4.5965,-4.8844,-4.5184
124.712,-4.7341,-4.6215,-4.6183
124.7506,-5.1491,-4.6969,-4.5201
124.7893,-4.851,-5.3789,-4.7186
124.8279,-4.6751,-5.2519,-4.8845
124.8666,-5.1381,-5.0133,-4.7441
124.9052,-5.1926,-4.7331,-4.5183
124.9439,-5.2076,-5.2649,-4.6463
124.9825,-4.7346,-4.6017,-4.7513
125.0212,-4.9437,-4.4966,-4.58
125.0598,-4.7715,-4.7507,-4.6104
125.0984,-4.6495,-4.8518,-4.6468
125.1371,-5.5879,-4.9031,-4.7727
125.1757,-5.0288,-4.8876,-4.7568
125.2144,-5.3341,-5.1641,-4.4534
125.253,-4.9998,-4.8879,-5.2138
125.2917,-4.772,-4.6246,-5.1903
125.3303,-4.689,-4.5398,-5.1333
125.369,-5.5612,-4.9951,-4.6942
125.4076,-4.8327,-4.7917,-4.7725
125.4463,-4.9751,-5.8644,-5.3974
125.4849,-4.9029,-4.8016,-4.7549
125.5236,-4.8183,-4.6374,-5.0228
125.5622,-4.481,-4.5701,-4.8865
125.6008,-4.7099,-4.881,-4.871
125.6395,-4.7634,-4.6156,-5.0963
125.6781,-5.3234,-5.209,-4.9244
125.7168,-4.7511,-4.6231,-4.6353
125.7554,-4.9733,-4.7056,-4.729
125.7941,-4.9254,-5.1162,-4.3998
125.8327,-5.3051,-5.2116,-5.7164
125.8714,-4.9274,-4.6864,-4.5379
125.91,-4.9054,-4.7187,-4.8113
125.9487,-4.9059,-4.8532,-4.8395
125.9873,-4.6654,-4.7456,-4.9182
126.026,-4.5997,-5.1433,-4.5767
126.0646,-4.8781,-5.2505,-4.7276
126.1032,-4.701,-4.6578,-4.7557
126.1419,-5.6628,-4.9291,-4.6749
126.1805,-5.4023,-5.0187,-4.6562
126.2192,-4.7517,-4.6828,-5.127
126.2578,-4.9211,-4.7327,-4.5865
126.2965,-5.6035,-5.2784,-4.5808
126.3351,-5.1963,-4.9,-4.4535
126.3738,-5.1198,-5.0888,-4.7525
126.4124,-4.7982,-4.8529,-4.4904
126.4511,-5.0965,-4.7034,-4.5258
126.4897,-5.1843,-4.6518,-4.6097
126.5284,-4.8497,-5.0529,-4.4147
126.567,-4.8418,-4.6344,-4.2929
126.6057,-4.8867,-4.8694,-4.8073
126.6443,-4.8218,-4.7473,-4.8684
126.6829,-5.0026,-4.5626,-4.5375
126.7216,-4.8383,-4.5802,-5.14
126.7602,-5.4531,-4.8206,-4.4468
126.7989,-4.8821,-4.6876,-4.6599
126.8375,-4.8789,-5.2859,-4.9745
126.8762,-4.7279,-4.9755,-4.4935
126.9148,-5.1874,-4.9161,-4.9813
126.9535,-4.986,-4.7118,-4.8156
126.9921,-4.8373,-5.1495,-5.0832
127.0308,-4.6196,-4.9648,-4.743
127.0694,-4.5764,-4.6944,-4.5175
127.1081,-5.2354,-4.88,-4.6135
127.1467,-6.0704,-4.8581,-5.253
127.1853,-4.9216,-4.856,-4.5408
127.224,-5.08,-4.8906,-4.4784
127.2626,-4.894,-5.2204,-4.5083
127.3013,-4.7879,-4.7978,-4.6747
127.3399,-4.7994,-5.2286,-4.74
127.3786,-4.7939,-4.8023,-4.7811
127.4172,-4.8807,-4.8773,-4.5122
127.4559,-4.6094,-4.7965,-4.6025
127.4945,-5.1331,-4.8437,-5.4873
127.5332,-4.7187,-4.9253,-4.7864
127.5718,-4.902,-5.2407,-5.226
127.6105,-4.801,-4.9757,-5.2842
127.6491,-4.9561,-4.9411,-4.8032
127.6878,-4.8135,-4.8454,-4.9839
127.7264,-5.3672,-5.0131,-5.0223
127.765,-4.6848,-4.7509,-4.8518
127.8037,-4.8449,-4.7011,-4.4254
127.8423,-5.2697,-4.8958,-4.6336
127.881,-4.8326,-4.7631,-4.8718
127.9196,-5.1094,-4.7492,-4.4455
127.9583,-4.9911,-4.8544,-4.5637
127.9969,-4.6527,-4.6908,-4.4988
128.0356,-4.8382,-4.8204,-5.1272
128.0742,-5.0327,-4.6714,-4.8023
128.1129,-4.5823,-4.6761,-4.9019
128.1515,-5.0391,-4.9545,-5.5385
128.1902,-5.2297,-5.4969,-4.7675
128.2288,-4.6932,-5.2085,-5.0414
128.2674,-4.6559,-4.6645,-4.6192
128.3061,-4.7896,-5.2575,-4.531
128.3447,-4.7196,-4.7864,-5.2799
128.3834,-4.6914,-5.0719,-4.7284
128.422,-5.1823,-5.4036,-4.8958
128.4607,-4.7776,-4.9985,-4.9266
128.4993,-4.819,-4.7384,-4.9102
128.538,-5.0281,-4.8874,-5.7955
128.5766,-4.8466,-4.8404,-4.6087
128.6153,-4.7354,-4.9993,-5.1217
128.6539,-4.7352,-4.8361,-4.6839
128.6926,-4.9336,-5.3291,-4.9351
128.7312,-5.5264,-4.6639,-4.9225
128.7699,-4.8854,-4.9513,-5.6002
128.8085,-4.9712,-4.7145,-4.6521
128.8471,-4.712,-4.6288,-4.473
128.8858,-4.7934,-4.9195,-4.74
128.9244,-5.0733,-5.5536,-4.7085
128.9631,-4.672,-4.791,-4.7972
129.0017,-4.9483,-5.4795,-4.6223
129.0404,-5.4245,-5.0209,-4.5821
129.079,-4.6612,-5.0466,-4.6786
129.1177,-4.9583,-5.3376,-4.8297
129.1563,-4.8717,-5.1746,-5.0653
129.195,-4.9904,-5.6891,-4.9808
129.2336,-4.8257,-5.5152,-5.4122
129.2723,-4.6561,-5.5612,-4.7489
129.3109,-4.7361,-4.656,-4.7392
129.3495,-4.9367,-4.6805,-4.6296
129.3882,-4.7324,-4.9537,-5.3647
129.4268,-4.6954,-4.7785,-4.6279
129.4655,-5.1898,-4.8969,-4.6097
129.5041,-4.9326,-4.8861,-4.6046
129.5428,-5.1435,-5.1603,-4.8767
129.5814,-4.719,-5.2374,-5.058
129.6201,-5.1384,-5.5762,-5.0229
129.6587,-4.8099,-4.5975,-4.7029
129.6974,-4.7909,-5.1148,-5.1402
129.736,-4.6913,-4.9671,-4.7467
129.7747,-4.8498,-4.6173,-4.8902
129.8133,-5.2607,-5.5623,-4.8482
129.852,-5.0923,-4.9187,-5.1007
129.8906,-4.8174,-4.8616,-4.6693
129.9292,-4.6783,-4.8372,-4.5296
129.9679,-4.8399,-4.8576,-4.1711
130.0065,-4.7798,-4.7029,-4.6966
130.0452,-4.6227,-4.7651,-5.1061
130.0838,-5.1386,-4.7877,-4.7473
130.1225,-5.4674,-5.8582,-5.2506
130.1611,-4.8463,-4.9477,-5.9384
130.1998,-5.0638,-4.5047,-4.993
130.2384,-5.073,-4.7713,-4.7467
130.2771,-4.9961,-4.8967,-4.7008
130.3157,-4.8578,-4.7306,-4.7215
130.3544,-4.7954,-5.0771,-4.7838
130.393,-4.7955,-5.1708,-4.8314
130.4316,-4.6965,-5.3886,-5.0725
130.4703,-4.8453,-4.7795,-4.7
130.5089,-4.9601,-5.0235,-4.5241
130.5476,-5.3111,-5.4292,-4.7077
130.5862,-5.2211,-4.7331,-4.8096
130.6249,-4.6393,-5.1849,-4.6221
130.6635,-4.8689,-5.5341,-4.7577
130.7022,-4.6642,-4.595,-4.7113
130.7408,-4.9086,-5.0177,-4.4861
130.7795,-5.1749,-4.9392,-4.5597
130.8181,-4.7767,-5.1579,-5.0453
130.8568,-5.3336,-4.9263,-4.5416
130.8954,-5.0553,-4.938,-4.5445
130.9341,-5.0444,-4.7198,-4.9059
130.9727,-5.3166,-5.066,-4.71
131.0113,-5.321,-5.0706,-4.714
131.05,-4.865,-5.3303,-4.6342
131.0886,-5.317,-5.0027,-4.5552
131.1273,-4.7561,-4.8606,-5.1142
131.1659,-4.8999,-4.9663,-4.5506
131.2046,-5.1075,-5.836,-4.8149
131.2432,-4.788,-5.4156,-4.6066
131.2819,-4.9303,-5.0832,-4.8429
131.3205,-4.8191,-5.3586,-4.9202
131.3592,-4.976,-4.8705,-4.5302
131.3978,-4.7658,-4.4958,-4.7744
131.4365,-4.6885,-5.204,-5.3916
131.4751,-4.8205,-4.8742,-5.3191
131.5137,-5.1368,-4.7049,-5.4882
131.5524,-5.5009,-4.889,-4.8232
131.591,-4.7024,-4.8091,-4.5797
131.6297,-5.2057,-4.9868,-5.028
131.6683,-4.5237,-4.6471,-4.4918
131.707,-4.6729,-4.9277,-4.6531
131.7456,-4.7503,-4.6299,-4.6235
131.7843,-4.7983,-4.7694,-4.7369
131.8229,-5.1994,-4.9483,-4.7414
131.8616,-4.7262,-4.918,-4.6598
131.9002,-5.1388,-4.9241,-4.9741
131.9389,-4.8007,-5.0374,-4.816
131.9775,-5.1102,-4.6739,-4.8776
132.0162,-4.9277,-5.5823,-4.3747
132.0548,-5.11,-5.1803,-5.0284
132.0934,-4.8289,-4.8278,-5.0762
132.1321,-5.416,-5.1541,-4.7667
132.1707,-4.7998,-5.05,-4.712
132.2094,-5.332,-5.1874,-4.7634
132.248,-4.9092,-5.3726,-4.9108
132.2867,-5.0979,-4.9985,-4.7555
132.3253,-4.8085,-4.8434,-4.8591
132.364,-4.9635,-4.8238,-4.6418
132.4026,-5.9078,-5.299,-5.2985
132.4413,-4.8011,-5.0691,-4.6476
132.4799,-4.8479,-4.9887,-5.3424
132.5186,-4.8299,-5.5129,-4.3141
132.5572,-5.1415,-4.8947,-4.9366
132.5958,-4.9054,-4.8848,-4.9373
132.6345,-4.8835,-5.1957,-4.7541
132.6731,-4.849,-5.4832,-5.1834
132.7118,-5.1824,-5.1824,-4.5442
132.7504,-5.1864,-4.9863,-4.6806
132.7891,-4.5383,-4.8476,-4.4686
132.8277,-5.2394,-4.8616,-5.2894
132.8664,-4.9623,-5.1951,-4.6826
132.905,-5.0936,-4.7955,-4.6407
132.9437,-4.8949,-5.3818,-4.4679
132.9823,-4.9018,-4.8068,-4.9349
133.021,-4.9504,-4.7077,-4.7306
133.0596,-5.0047,-5.5686,-4.8004
133.0983,-4.8887,-4.8463,-4.6884
133.1369,-4.9495,-5.4745,-4.8114
133.1755,-5.5936,-5.0964,-5.0782
133.2142,-4.9332,-4.7532,-4.7522
133.2528,-4.7032,-4.8579,-4.6888
133.2915,-4.8085,-5.234,-4.3585
133.3301,-5.4115,-5.22,-4.7885
133.3688,-4.9245,-5.8064,-4.7136
133.4074,-5.3144,-4.9734,-4.7022
133.4461,-4.9085,-4.9208,-5.0064
133.4847,-4.6532,-4.7913,-4.8599
133.5234,-5.0107,-5.0064,-4.7051
133.562,-4.7592,-5.2804,-4.6634
133.6007,-4.9232,-4.8601,-4.933
133.6393,-4.6297,-4.925,-4.9731
133.6779,-4.6869,-4.8552,-4.544
133.7166,-4.8941,-5.3465,-4.7362
133.7552,-5.2096,-4.7745,-4.5648
133.7939,-4.8614,-5.2055,-4.8624
133.8325,-4.9603,-4.9001,-4.545
133.8712,-4.7334,-4.9124,-4.5566
133.9098,-4.761,-4.6334,-4.4638
133.9485,-5.1565,-4.9166,-4.4811
133.9871,-5.3164,-5.245,-4.7132
134.0258,-5.0849,-4.8791,-4.617
134.0644,-5.4404,-5.1683,-5.6631
134.1031,-4.958,-5.3405,-4.6221
134.1417,-4.7053,-5.0472,-5.2871
134.1804,-4.7784,-4.8599,-5.1271
134.219,-5.2104,-4.9264,-5.4899
134.2576,-4.8355,-4.7084,-6.0614
134.2963,-4.7413,-4.72,-4.4838
134.3349,-4.836,-4.9401,-4.4292
134.3736,-5.0828,-5.2132,-4.7932
134.4122,-4.9936,-5.3422,-4.6596
134.4509,-4.8464,-5.3958,-4.9582
134.4895,-5.0964,-4.9208,-4.6644
134.5282,-5.0627,-5.1419,-4.7866
134.5668,-5.7694,-5.3067,-5.164
134.6055,-4.828,-5.285,-4.9403
134.6441,-4.7665,-4.9876,-4.6766
134.6828,-4.8323,-4.8314,-4.7279
134.7214,-4.8897,-5.1076,-4.7159
134.76,-5.3684,-4.9925,-4.4164
134.7987,-4.8652,-5.3079,-5.0716
134.8373,-4.8912,-5.2128,-4.8796
134.876,-5.0847,-4.9357,-4.3818
134.9146,-5.0953,-4.842,-4.4857
134.9533,-5.2374,-4.9308,-4.9865
134.9919,-5.0044,-4.7967,-5.3803
135.0306,-4.9257,-5.0629,-4.8702
135.0692,-4.8043,-4.7147,-4.9172
135.1079,-4.7328,-5.2469,-4.4593
135.1465,-5.049,-5.0067,-4.493
135.1852,-4.9924,-4.7491,-4.4807
135.2238,-4.7811,-5.1518,-4.5639
135.2625,-5.0272,-5.4344,-4.9253
135.3011,-4.9275,-4.9281,-4.5437
135.3397,-4.7372,-5.4331,-5.6158
135.3784,-4.751,-5.6355,-5.0992
135.417,-4.5927,-4.6256,-5.0007
135.4557,-4.7323,-4.8378,-4.7626
135.4943,-4.8068,-4.8256,-4.6612
135.533,-4.9293,-5.3467,-4.5196
135.5716,-5.8755,-5.0809,-4.6068
135.6103,-5.2183,-4.9017,-4.6995
135.6489,-5.8145,-5.1961,-4.765
135.6876,-4.7765,-5.4849,-4.9222
135.7262,-4.8359,-5.0185,-4.4
135.7649,-4.8217,-5.0128,-4.6282
135.8035,-5.1893,-4.7389,-4.5349
135.8421,-5.0923,-5.1747,-4.527
135.8808,-4.8382,-5.6093,-5.3229
135.9194,-4.5099,-4.6294,-4.9188
135.9581,-4.7002,-4.8553,-4.6901
135.9967,-4.6253,-4.9923,-4.4912
136.0354,-4.7811,-4.752,-4.8629
136.074,-4.9106,-5.0688,-4.6086
136.1127,-5.2822,-5.1156,-4.5023
136.1513,-4.9671,-5.3463,-4.6528
136.19,-5.7858,-4.6704,-4.9327
136.2286,-5.1374,-4.818,-4.4854
136.2673,-4.9399,-5.8347,-4.4669
136.3059,-5.4538,-5.2896,-4.5637
136.3445,-4.9103,-5.8202,-4.639
136.3832,-4.8596,-4.9122,-4.8616
136.4218,-4.9363,-5.2647,-4.825
136.4605,-4.6674,-5.0633,-4.4483
136.4991,-4.821,-5.087,-4.5517
136.5378,-5.0704,-4.7715,-4.854
136.5764,-4.7524,-4.7715,-4.7298
136.6151,-5.0103,-5.3805,-4.9148
136.6537,-4.54,-5.1354,-5.5522
136.6924,-4.8064,-4.7406,-5.1068
136.731,-4.9147,-4.6499,-4.5835
136.7697,-4.9328,-4.7093,-4.6112
136.8083,-5.0308,-4.9097,-4.5727
136.847,-4.9068,-5.3213,-6.0287
136.8856,-5.9958,-4.8326,-4.7356
136.9242,-4.7244,-5.1423,-4.5138
136.9629,-5.055,-5.0539,-4.7969
137.0015,-4.6786,-5.0768,-4.8265
137.0402,-5.656,-4.8429,-4.9758
137.0788,-5.7127,-4.9357,-5.021
137.1175,-4.6065,-4.7984,-4.7522
137.1561,-4.5636,-4.7182,-4.7715
137.1948,-4.6399,-5.0889,-4.8954
137.2334,-5.0847,-5.5526,-5.4978
137.2721,-5.0434,-5.8186,-4.6535
137.3107,-4.8138,-4.856,-4.8362
137.3494,-4.7594,-5.3031,-5.4584
137.388,-5.4089,-4.8811,-4.8412
137.4266,-5.516,-5.0992,-4.8404
137.4653,-4.5953,-4.7101,-4.7296
137.5039,-4.8869,-4.943,-5.1053
137.5426,-4.6765,-4.9215,-4.9921
137.5812,-4.6732,-4.9079,-4.9896
137.6199,-5.1769,-5.0501,-4.6643
137.6585,-5.3311,-5.0034,-4.7429
137.6972,-5.6345,-4.993,-5.1265
137.7358,-5.0814,-5.2276,-5.0989
137.7745,-5.5378,-4.867,-4.7135
137.8131,-5.1775,-4.7728,-4.6265
137.8518,-5.1956,-4.7087,-4.9647
137.8904,-4.6869,-5.0504,-4.8658
137.9291,-5.2027,-4.9346,-5.0987
137.9677,-4.9222,-5.5649,-4.6186
138.0063,-4.7122,-4.9231,-4.6584
138.045,-4.7965,-4.8736,-5.6397
138.0836,-4.9649,-5.0666,-4.837
138.1223,-5.0047,-4.869,-4.4815
138.1609,-5.0428,-5.1883,-4.9126
138.1996,-5.7562,-5.045,-5.4304
138.2382,-4.8152,-4.8894,-4.7233
138.2769,-4.6351,-4.9358,-4.7726
138.3155,-5.058,-4.7765,-4.9594
138.3542,-5.1865,-4.9476,-4.9069
138.3928,-4.9726,-4.9222,-4.9617
138.4315,-4.8493,-5.3254,-4.8708
138.4701,-4.7678,-4.7329,-4.8938
138.5087,-4.9058,-4.7584,-4.5435
138.5474,-4.6202,-4.9187,-4.7041
138.586,-4.7031,-5.4564,-4.9542
138.6247,-4.7649,-5.2137,-5.062
138.6633,-5.3285,-4.9602,-4.7107
138.702,-4.9094,-5.1133,-4.7411
138.7406,-5.5254,-4.8507,-4.94
138.7793,-4.9029,-4.8768,-4.8126
138.8179,-4.9723,-4.9585,-5.4901
138.8566,-5.0264,-5.3702,-4.7788
138.8952,-4.8174,-4.7764,-4.7597
138.9339,-4.9499,-5.2986,-4.5805
138.9725,-5.5626,-5.9539,-5.1115
139.0112,-4.8932,-4.9772,-4.8716
139.0498,-4.929,-5.9617,-4.4971
139.0884,-4.819,-5.6057,-5.3968
139.1271,-5.3185,-5.0441,-4.8072
139.1657,-4.7615,-4.7658,-4.4556
139.2044,-5.2403,-5.1711,-4.295
139.243,-5.3086,-4.6614,-4.6263
139.2817,-5.0747,-4.9598,-4.7074
139.3203,-4.9135,-4.8213,-4.9957
139.359,-4.8168,-4.8034,-5.3226
139.3976,-4.7371,-5.4045,-5.4696
139.4363,-4.7859,-4.5649,-4.5286
139.4749,-5.7299,-5.0598,-4.6837
139.5136,-4.9195,-4.7278,-4.8621
139.5522,-4.9008,-5.3488,-4.7347
139.5908,-4.4672,-4.8721,-4.8416
139.6295,-4.1872,-4.8181,-4.7698
139.6681,-4.1534,-4.7847,-4.4781
139.7068,-4.1426,-4.8399,-5.3481
139.7454,-3.7587,-5.384,-4.8478
139.7841,-4.355,-5.1612,-5.0616
139.8227,-4.0643,-5.1157,-5.1578
139.8614,-4.5014,-4.6995,-5.3995
139.9,-4.252,-4.5395,-4.6947
139.9387,-5.5524,-4.9009,-4.433
139.9773,-4.2895,-4.4459,-4.5762
140.016,-4.7065,-5.0606,-5.0767
140.0546,-4.5281,-5.0113,-5.7206
140.0933,-4.6964,-5.1687,-4.7569
140.1319,-4.2201,-5.0525,-4.8022
140.1705,-4.2058,-4.7965,-4.8865
140.2092,-4.038,-4.7736,-4.9378
140.2478,-4.115,-4.9142,-4.9154
140.2865,-3.7339,-4.9034,-4.3253
140.3251,-3.6115,-5.073,-6.0511
140.3638,-4.1928,-4.8609,-4.6884
140.4024,-4.7318,-5.2138,-4.7034
140.4411,-4.8821,-5.0169,-4.8569
140.4797,-4.5451,-4.9091,-4.7577
140.5184,-4.8148,-4.9105,-5.061
140.557,-4.5648,-4.968,-4.727
140.5957,-4.6158,-5.1681,-5.0174
140.6343,-5.0554,-4.6138,-5.2073
140.6729,-4.7598,-5.0581,-5.3024
140.7116,-4.9678,-5.0452,-4.8206
140.7502,-4.98,-5.1333,-4.888
140.7889,-4.747,-4.9036,-4.5445
140.8275,-4.9485,-5.262,-5.1184
140.8662,-5.4975,-5.2455,-4.6648
140.9048,-4.7495,-4.9274,-4.5119
140.9435,-5.0381,-4.9159,-4.6143
140.9821,-5.0459,-5.0982,-4.998
141.0208,-5.1793,-5.5698,-5.1698
141.0594,-5.4548,-5.3397,-4.703
141.0981,-5.221,-4.753,-4.6737
141.1367,-4.8636,-5.1949,-4.9791
141.1754,-4.9097,-4.9407,-4.7246
141.214,-5.0233,-4.9489,-4.5848
141.2526,-5.1877,-5.5328,-4.9691
141.2913,-4.8779,-4.898,-4.3913
141.3299,-4.7414,-5.1837,-4.9356
141.3686,-4.7276,-4.9901,-4.8182
141.4072,-5.1108,-4.8145,-4.692
141.4459,-4.6903,-4.8557,-4.9869
141.4845,-5.1059,-4.7808,-4.4468
141.5232,-4.908,-4.8253,-5.0525
141.5618,-5.3939,-5.0004,-4.7823
141.6005,-5.0342,-5.1022,-4.7057
141.6391,-5.2755,-5.0426,-4.5692
141.6778,-5.6816,-4.8951,-4.6063
141.7164,-5.2572,-5.2811,-4.3471
141.755,-5.8381,-4.6994,-4.8168
141.7937,-5.1346,-5.0541,-5.4357
141.8323,-4.6362,-4.7041,-4.3209
141.871,-5.2632,-5.0224,-4.6377
141.9096,-5.1902,-4.9913,-5.2175
141.9483,-4.9629,-5.1861,-4.8807
141.9869,-5.2629,-5.2731,-5.6134
142.0256,-4.781,-5.1128,-4.5848
142.0642,-5.0318,-4.9192,-5.1538
142.1029,-4.7258,-4.9135,-4.6185
142.1415,-4.9284,-5.6693,-4.7481
142.1802,-4.9948,-5.0176,-4.6669
142.2188,-4.6686,-4.6038,-4.7702
142.2575,-4.8207,-4.9488,-4.7046
142.2961,-5.097,-5.397,-4.8346
142.3347,-5.0296,-4.6823,-4.6424
142.3734,-4.8561,-4.7424,-5.0746
142.412,-5.0676,-5.6474,-4.6656
142.4507,-5.1446,-5.157,-4.452
142.4893,-4.9343,-4.7393,-4.6914
142.528,-5.4163,-4.7259,-4.718
142.5666,-5.0822,-5.0211,-4.5309
142.6053,-4.6341,-5.1732,-4.96
142.6439,-4.9418,-4.7756,-4.8167
142.6826,-4.9651,-4.8695,-4.7415
142.7212,-5.1223,-5.0188,-5.2593
142.7599,-5.636,-4.8006,-5.143
142.7985,-4.6019,-5.2122,-5.3803
142.8371,-5.1785,-5.103,-4.8447
142.8758,-4.7744,-4.9212,-4.6664
142.9144,-4.8927,-4.8729,-4.6443
142.9531,-5.2422,-5.2783,-4.7633
142.9917,-5.2565,-5.1339,-4.7126
143.0304,-5.0081,-4.9487,-4.5144
143.069,-5.4957,-5.4684,-4.7478
143.1077,-5.147,-5.1639,-4.5582
143.1463,-6.0442,-5.1858,-4.7513
143.185,-4.9763,-5.3115,-4.4409
143.2236,-5.2042,-5.034,-4.6341
143.2623,-4.4955,-4.8798,-4.9568
143.3009,-5.0413,-5.0471,-4.7403
143.3396,-4.8873,-5.0369,-4.5757
143.3782,-5.0088,-5.1822,-4.9248
143.4168,-5.1794,-5.0359,-4.6487
143.4555,-4.9394,-4.8745,-4.5007
143.4941,-4.7431,-4.9081,-4.4853
143.5328,-5.0905,-4.8889,-4.774
143.5714,-5.3126,-5.0259,-4.7431
143.6101,-5.3122,-5.0539,-4.5527
143.6487,-5.4248,-5.3669,-4.6467
143.6874,-4.8066,-5.1506,-5.0394
143.726,-5.1602,-5.2862,-4.5818
143.7647,-5.2197,-4.8731,-4.577
143.8033,-4.722,-4.8811,-4.4466
143.842,-5.1051,-5.4496,-4.965
143.8806,-5.3614,-4.7683,-4.9418
143.9192,-5.0245,-4.7114,-4.5979
143.9579,-4.8415,-4.7401,-4.7249
143.9965,-5.1195,-4.6563,-4.9888
144.0352,-5.4312,-4.9311,-5.0694
144.0738,-4.9624,-5.0421,-5.106
144.1125,-5.1793,-4.6299,-4.8853
144.1511,-4.8371,-5.2579,-4.4568
144.1898,-4.9655,-5.0407,-4.8469
144.2284,-5.2486,-5.1154,-5.0651
144.2671,-5.1925,-5.0317,-5.0048
144.3057,-4.8595,-4.6674,-4.9052
144.3444,-5.0307,-4.7041,-4.6792
144.383,-5.2982,-5.0023,-4.9928
144.4217,-5.3323,-5.1491,-4.5104
144.4603,-4.6779,-4.9495,-5.5697
144.4989,-5.1973,-4.994,-4.5199
144.5376,-4.6856,-4.9454,-5.2676
144.5762,-5.2402,-4.8615,-4.5174
144.6149,-5.0053,-4.9082,-4.7962
144.6535,-4.7725,-4.909,-5.1838
144.6922,-5.0669,-5.4595,-5.8677
144.7308,-4.8481,-5.0278,-4.7737
144.7695,-5.1078,-4.95,-4.9659
144.8081,-4.9351,-5.0837,-4.7731
144.8468,-5.3224,-5.3436,-4.6889
144.8854,-4.8367,-5.092,-4.9691
144.9241,-5.142,-5.0966,-4.7676
144.9627,-4.7824,-4.8531,-4.3945
145.0013,-4.6476,-4.9938,-4.6202
145.04,-5.0056,-5.2931,-4.6712
145.0786,-5.2853,-5.1132,-5.0861
145.1173,-4.7997,-4.9489,-4.8373
145.1559,-5.0742,-4.8763,-4.6191
145.1946,-4.9099,-5.3066,-4.4528
145.2332,-5.0856,-5.0268,-4.857
145.2719,-5.449,-4.8736,-4.8147
145.3105,-5.1655,-4.8295,-5.2042
145.3492,-5.3261,-5.2711,-5.0808
145.3878,-5.323,-4.9935,-4.5924
145.4265,-5.1243,-4.8031,-4.5201
145.4651,-4.9333,-5.2661,-4.4908
145.5037,-5.0543,-4.6394,-5.5127
145.5424,-5.119,-5.1538,-4.6508
145.581,-4.8859,-5.368,-4.5698
145.6197,-5.5173,-5.0927,-4.7987
145.6583,-5.1832,-5.0466,-4.7711
145.697,-4.8009,-4.6872,-4.611
145.7356,-5.1063,-5.0621,-5.1005
145.7743,-4.9999,-4.9656,-4.7121
145.8129,-5.0943,-5.1302,-4.5393
145.8516,-4.9173,-4.8946,-4.5126
145.8902,-5.0766,-5.0925,-4.7212
145.9289,-4.8073,-5.0432,-4.4859
145.9675,-5.1259,-5.1707,-5.1544
146.0062,-5.0749,-5.3449,-4.7743
146.0448,-5.1443,-4.9702,-4.4733
146.0834,-4.8336,-5.2889,-4.6342
146.1221,-4.9823,-4.9564,-4.5823
146.1607,-5.0201,-5.2482,-4.9735
146.1994,-5.1748,-5.2542,-4.8306
146.238,-5.0079,-5.1686,-4.8406
146.2767,-4.9116,-5.1758,-4.7787
146.3153,-5.3163,-5.5694,-4.5187
146.354,-5.1123,-5.344,-4.6421
146.3926,-4.7575,-5.4962,-4.5149
146.4313,-5.2445,-4.9807,-4.6472
146.4699,-4.7816,-4.7807,-4.7765
146.5086,-5.0226,-6.223,-4.4488
146.5472,-4.933,-4.8997,-4.7661
146.5858,-5.438,-5.2297,-4.8751
146.6245,-5.3536,-4.7136,-4.905
146.6631,-5.467,-5.0296,-4.7776
146.7018,-5.1878,-5.1375,-4.5772
146.7404,-5.0068,-4.8791,-5.4235
146.7791,-5.2652,-4.8457,-5.203
146.8177,-4.9703,-6.1825,-4.6519
146.8564,-4.9718,-4.7996,-4.5131
146.895,-5.0175,-5.9484,-4.731
146.9337,-5.3225,-5.1294,-5.0945
146.9723,-4.8936,-5.2797,-4.7508
147.011,-5.2867,-4.9806,-4.9665
147.0496,-4.9592,-5.2276,-4.4376
147.0883,-5.1061,-5.1922,-4.7859
147.1269,-4.768,-4.9147,-4.5835
147.1655,-4.9682,-5.1246,-4.8013
147.2042,-5.0712,-4.7389,-4.5409
147.2428,-4.7535,-5.0045,-4.8905
147.2815,-4.837,-5.0727,-4.9679
147.3201,-4.8359,-5.1436,-4.9544
147.3588,-4.8425,-4.8257,-5.1682
147.3974,-4.9134,-4.9005,-4.4444
147.4361,-4.6929,-4.8079,-4.9249
147.4747,-4.9805,-6.0099,-4.8562
147.5134,-4.623,-5.3181,-4.7641
147.552,-4.998,-5.0295,-4.2433
147.5907,-4.9167,-5.0892,-4.6531
147.6293,-4.6966,-4.9879,-4.5359
147.6679,-5.061,-5.0176,-4.4255
147.7066,-4.8501,-5.0234,-4.9931
147.7452,-5.0055,-5.3238,-4.5761
147.7839,-4.9156,-4.8393,-4.6285
147.8225,-5.0542,-5.2554,-4.6035
147.8612,-4.9608,-4.8017,-4.7023
147.8998,-4.8252,-5.0943,-4.8779
147.9385,-4.7566,-5.3445,-5.3742
147.9771,-5.0725,-5.1578,-4.5871
148.0158,-5.0975,-5.1238,-4.5199
148.0544,-4.9879,-4.9696,-5.0171
148.0931,-4.9968,-4.8313,-5.1528
148.1317,-4.9691,-5.0533,-4.6507
148.1704,-4.6684,-5.0181,-5.0272
148.209,-4.7859,-4.821,-4.553
148.2476,-5.1811,-5.549,-5.3505
148.2863,-4.6782,-4.9433,-5.2165
148.3249,-5.208,-4.8108,-4.2391
148.3636,-4.9709,-4.9989,-4.5238
148.4022,-4.7056,-4.9842,-5.1272
148.4409,-4.9224,-5.1221,-4.981
148.4795,-4.9158,-5.6838,-4.7075
148.5182,-5.3618,-5.1606,-4.6865
148.5568,-5.0371,-5.4614,-5.657
148.5955,-5.0985,-5.1248,-4.9082
148.6341,-5.1023,-5.1985,-5.0598
148.6728,-5.3237,-4.9447,-4.7281
148.7114,-4.9623,-6.3652,-4.7867
148.75,-5.9828,-4.8271,-4.6657
148.7887,-5.4119,-5.4892,-4.8299
148.8273,-4.9097,-4.9253,-4.5787
148.866,-5.447,-5.0263,-4.7002
148.9046,-4.9041,-4.8571,-4.4067
148.9433,-5.1728,-4.9863,-4.5722
148.9819,-5.2332,-5.1356,-4.9426
149.0206,-5.1303,-5.0038,-4.4281
149.0592,-5.012,-4.9708,-5.1071
149.0979,-5.1391,-4.889,-4.8939
149.1365,-4.9706,-5.2329,-5.1296
149.1752,-5.0281,-5.4106,-4.5134
149.2138,-4.8735,-4.8741,-4.6685
149.2525,-5.0321,-5.469,-5.2079
149.2911,-5.4209,-4.9185,-4.8744
149.3297,-4.8632,-5.0208,-4.7657
149.3684,-6.3318,-4.9333,-4.6828
149.407,-5.1353,-5.33,-4.7903
149.4457,-4.8958,-5.0433,-4.7861
149.4843,-5.0174,-5.1589,-4.7483
149.523,-4.5785,-4.7438,-4.7125
149.5616,-4.7397,-5.4019,-4.3961
149.6003,-4.8485,-4.6532,-4.5639
149.6389,-5.3777,-5.2318,-4.7078
149.6776,-4.7932,-5.4334,-4.4222
149.7162,-4.7477,-4.81,-4.548
149.7549,-4.9736,-5.3374,-4.2729
149.7935,-4.9698,-5.1007,-4.6967
149.8321,-4.9109,-5.0697,-5.0089
149.8708,-5.1003,-5.3165,-4.753
149.9094,-4.736,-4.572,-4.2013
149.9481,-4.4625,-4.1731,-3.8086
149.9867,-4.8309,-4.6814,-4.4499
150.0254,-4.9142,-4.7958,-5.2448
150.064,-4.6601,-5.0276,-4.9948
150.1027,-5.0053,-4.8964,-4.5782
150.1413,-5.165,-4.7517,-5.2119
150.18,-4.9812,-4.9084,-4.5376
150.2186,-5.1854,-4.9196,-4.5789
150.2573,-4.6867,-4.9997,-4.9733
150.2959,-4.9771,-5.247,-4.8346
150.3346,-4.8463,-5.0572,-4.5765
150.3732,-4.7951,-5.2686,-4.6523
150.4118,-4.9108,-5.1022,-5.1517
150.4505,-4.5831,-4.9607,-4.7768
150.4891,-5.3216,-5.0099,-4.8254
150.5278,-5.2946,-5.4282,-5.5918
150.5664,-4.899,-5.1412,-5.169
150.6051,-4.8746,-4.8389,-4.8227
150.6437,-4.683,-5.0364,-4.8418
150.6824,-5.0141,-5.4103,-5.5934
150.721,-4.9234,-5.0309,-4.7865
150.7597,-4.7724,-5.1051,-5.079
150.7983,-5.0177,-5.2382,-4.8232
150.837,-5.1784,-5.034,-5.1965
150.8756,-4.7282,-5.054,-4.463
150.9142,-5.2197,-4.8635,-4.8989
150.9529,-4.6777,-4.9837,-4.7346
150.9915,-5.2997,-4.9602,-4.8946
151.0302,-5.0477,-5.1405,-4.7498
151.0688,-4.7716,-4.8267,-5.325
151.1075,-4.9429,-5.2272,-4.9111
151.1461,-5.1909,-5.146,-4.4935
151.1848,-4.7442,-5.2803,-5.2298
151.2234,-4.8759,-4.7738,-4.4743
151.2621,-5.2322,-4.6568,-5.3078
151.3007,-4.6761,-5.0514,-5.0683
151.3394,-5.5365,-5.0787,-4.9335
151.378,-5.1807,-4.8555,-5.105
151.4167,-4.9339,-4.8512,-4.6173
151.4553,-5.1302,-5.8594,-5.0144
151.4939,-4.8803,-5.1157,-4.9945
151.5326,-4.9985,-4.8081,-5.0538
151.5712,-4.6317,-4.7741,-5.1596
151.6099,-4.6489,-5.0407,-5.3223
151.6485,-4.7254,-5.006,-4.8507
151.6872,-4.6755,-5.5214,-4.6691
151.7258,-4.7517,-4.7795,-5.1632
151.7645,-5.0797,-4.9988,-4.7584
151.8031,-4.8115,-4.8025,-5.2284
151.8418,-5.6784,-5.1851,-4.7423
151.8804,-4.9803,-5.0492,-4.6716
151.9191,-4.9466,-5.2684,-4.6748
151.9577,-4.7063,-5.7758,-4.9902
151.9963,-5.2826,-5.0081,-4.6079
152.035,-5.1002,-5.547,-5.2177
152.0736,-4.8524,-4.8124,-4.575
152.1123,-4.8861,-5.4285,-5.2163
152.1509,-4.6953,-5.3794,-5.0798
152.1896,-5.6212,-5.3672,-4.305
152.2282,-4.8563,-5.492,-4.4794
152.2669,-4.8588,-5.2988,-4.7062
152.3055,-5.6396,-4.8915,-4.6353
152.3442,-5.0468,-4.9972,-4.4247
152.3828,-5.5516,-5.0087,-5.1179
152.4215,-4.927,-4.8888,-4.9549
152.4601,-4.931,-4.799,-4.6866
152.4988,-4.7271,-5.0166,-4.5133
152.5374,-5.0057,-4.8981,-4.8786
152.576,-4.7222,-4.9071,-4.7815
152.6147,-4.8604,-4.8201,-4.5925
152.6533,-5.1967,-4.9613,-4.8036
152.692,-4.8299,-4.8486,-4.3424
152.7306,-5.5582,-4.8907,-4.7523
152.7693,-4.9682,-5.0946,-4.4261
152.8079,-4.7338,-5.2988,-4.8189
152.8466,-5.1434,-4.7936,-4.3549
152.8852,-5.6399,-4.7217,-4.7814
152.9239,-5.0585,-5.0183,-5.068
152.9625,-4.5336,-5.1069,-4.6258
153.0012,-4.7449,-5.166,-4.922
153.0398,-5.5145,-5.028,-5.1159
153.0784,-4.8714,-5.0779,-4.7512
153.1171,-5.0825,-5.095,-4.4097
153.1557,-4.8072,-4.6372,-5.0529
153.1944,-5.4055,-5.3213,-4.5376
153.233,-4.7975,-4.691,-5.6926
153.2717,-5.3295,-5.5809,-4.4663
153.3103,-4.6917,-5.0801,-4.7878
153.349,-4.9122,-5.2118,-4.4611
153.3876,-4.7038,-4.9857,-4.7948
153.4263,-5.1652,-4.8945,-4.4875
153.4649,-5.4354,-5.1589,-4.8171
153.5036,-5.7354,-5.5704,-4.486
153.5422,-5.5041,-5.0004,-4.8276
153.5809,-5.2563,-5.7314,-4.7449
153.6195,-4.7338,-4.7979,-4.4219
153.6581,-5.7452,-4.8614,-4.8732
153.6968,-4.9181,-5.0773,-4.4969
153.7354,-4.8045,-5.2295,-4.7409
153.7741,-5.216,-4.9522,-5.0105
153.8127,-4.937,-5.5692,-4.5005
153.8514,-4.8415,-4.7277,-4.6275
153.89,-5.7369,-6.566,-4.4731
153.9287,-4.8066,-5.414,-4.7206
153.9673,-5.1376,-5.7945,-4.3364
154.006,-5.0439,-5.1511,-4.715
154.0446,-4.8633,-4.9445,-4.659
154.0833,-4.8316,-5.4958,-4.9567
154.1219,-4.9284,-5.0133,-5.315
154.1605,-4.7631,-5.601,-4.7076
154.1992,-4.7909,-5.0909,-5.0397
154.2378,-4.8351,-5.1132,-4.6479
154.2765,-5.0418,-4.9412,-5.0113
154.3151,-5.3025,-5.1767,-4.9817
154.3538,-4.9177,-4.7998,-4.7512
154.3924,-5.0414,-5.114,-5.2134
154.4311,-5.0302,-4.843,-4.4381
154.4697,-4.827,-5.231,-4.7932
154.5084,-5.0569,-4.8581,-5.3442
154.547,-5.1633,-4.9478,-4.6571
154.5857,-5.042,-5.5098,-5.6931
154.6243,-4.71,-5.5499,-4.4915
154.663,-5.2961,-5.0839,-4.6143
154.7016,-4.9254,-5.5414,-5.0043
154.7402,-5.8182,-4.9905,-4.7032
154.7789,-5.3911,-4.9843,-4.6976
154.8175,-5.6699,-5.0526,-4.9684
154.8562,-5.0099,-5.2806,-4.9356
154.8948,-5.1018,-4.9656,-4.4983
154.9335,-4.922,-5.6323,-4.6025
154.9721,-4.9061,-5.3454,-4.8045
155.0108,-4.9041,-5.0082,-4.6052
155.0494,-4.7546,-4.9611,-4.8239
155.0881,-5.0469,-5.2005,-4.7338
155.1267,-4.8003,-4.9052,-4.8248
155.1654,-5.2196,-4.9175,-5.0804
155.204,-5.2458,-5.0617,-4.9343
155.2426,-5.3308,-4.7621,-4.749
155.2813,-5.091,-5.5282,-5.0453
155.3199,-5.3847,-5.3389,-4.6387
155.3586,-4.9096,-5.1721,-5.0145
155.3972,-4.7571,-4.9383,-4.4554
155.4359,-4.9587,-5.0696,-4.3657
155.4745,-4.6479,-5.1387,-4.7263
155.5132,-4.9814,-5.0953,-5.2442
155.5518,-4.6682,-5.5694,-4.6817
155.5905,-5.4516,-5.2232,-4.7285
155.6291,-5.1989,-5.1945,-4.4765
155.6678,-4.9641,-5.1894,-4.9298
155.7064,-5.2794,-5.0682,-4.8813
155.745,-5.3115,-5.3152,-4.6876
155.7837,-4.7183,-5.262,-4.546
155.8223,-4.7073,-4.9463,-4.7372
155.861,-4.9302,-5.0552,-4.644
155.8996,-4.6026,-5.5305,-4.9041
155.9383,-4.9312,-5.4521,-5.1829
155.9769,-5.4364,-5.1457,-4.8939
156.0156,-4.8574,-5.0483,-5.2752
156.0542,-5.5636,-5.4427,-4.8152
156.0929,-5.0087,-4.7028,-4.6454
156.1315,-4.7897,-5.0306,-4.8019
156.1702,-5.0242,-5.2662,-4.6935
156.2088,-4.9385,-5.0405,-4.8107
156.2475,-5.0101,-5.1996,-4.7833
156.2861,-4.7388,-4.9783,-4.8929
156.3247,-4.7882,-5.086,-4.8414
156.3634,-5.0499,-5.0822,-4.6246
156.402,-5.2961,-5.0134,-4.4776
156.4407,-4.932,-4.7417,-4.9222
156.4793,-5.6912,-4.8287,-5.2689
156.518,-5.0432,-5.0806,-5.0878
156.5566,-4.9942,-5.3154,-4.5298
156.5953,-4.9531,-4.8218,-4.5489
156.6339,-5.4113,-5.3186,-5.0395
156.6726,-5.1823,-4.8337,-4.5272
156.7112,-4.9253,-4.7811,-5.476
156.7499,-5.2232,-5.8058,-4.4201
156.7885,-4.6502,-5.2299,-4.4231
156.8271,-5.011,-5.0544,-5.1922
156.8658,-4.6779,-5.0897,-4.6351
156.9044,-4.741,-5.3302,-4.5418
156.9431,-4.8186,-5.4972,-4.6605
156.9817,-5.1617,-5.136,-5.2193
157.0204,-5.2876,-5.0436,-5.1516
157.059,-5.0737,-4.9899,-5.0437
157.0977,-4.8257,-5.1206,-4.9637
157.1363,-4.8313,-5.1254,-4.532
157.175,-5.3728,-5.4961,-4.7402
157.2136,-4.9605,-5.2906,-4.5031
157.2523,-4.9983,-5.8775,-5.5092
157.2909,-4.791,-4.9842,-5.1735
157.3296,-5.0228,-5.5888,-4.8466
157.3682,-4.8873,-4.817,-5.3675
157.4068,-4.7275,-5.4639,-4.5779
157.4455,-4.9297,-4.8758,-4.5525
157.4841,-5.4378,-5.3602,-4.5366
157.5228,-4.6935,-4.8402,-4.8932
157.5614,-5.3587,-5.257,-4.8964
157.6001,-5.0193,-4.9305,-5.0651
157.6387,-5.4637,-4.8929,-5.1702
157.6774,-5.305,-5.2461,-4.5629
157.716,-4.671,-5.2886,-4.724
157.7547,-5.8753,-5.0597,-5.3107
157.7933,-5.1605,-5.1725,-4.7772
157.832,-6.2359,-5.2916,-4.6856
157.8706,-5.6819,-5.2122,-4.7304
157.9092,-5.0542,-5.7287,-4.3798
157.9479,-5.0265,-4.8648,-4.6662
157.9865,-4.8799,-4.9861,-4.5746
158.0252,-4.6663,-5.1013,-4.7605
158.0638,-4.973,-5.7634,-4.8211
158.1025,-4.7844,-5.0933,-4.8626
158.1411,-4.8898,-4.943,-4.6186
158.1798,-5.1137,-4.8866,-4.4253
158.2184,-4.6854,-5.0877,-4.6523
158.2571,-4.8161,-5.1455,-4.5065
158.2957,-5.0715,-4.9034,-4.907
158.3344,-4.8641,-5.2746,-4.6906
158.373,-5.0853,-5.2543,-4.5863
158.4117,-5.3669,-5.2827,-4.7289
158.4503,-4.8652,-4.9916,-4.9932
158.4889,-5.0836,-5.3579,-4.6355
158.5276,-5.1096,-4.9484,-4.6299
158.5662,-4.8593,-5.3224,-4.899
158.6049,-5.2642,-5.1166,-4.7824
158.6435,-5.2335,-4.9785,-4.8489
158.6822,-5.4437,-5.1425,-4.7442
158.7208,-4.9552,-5.072,-4.707
158.7595,-5.0846,-5.0045,-4.8939
158.7981,-5.0528,-5.1866,-4.7824
158.8368,-5.0323,-5.2592,-4.5911
158.8754,-5.0429,-5.1635,-4.6947
158.9141,-4.9412,-5.003,-4.6327
158.9527,-5.1977,-4.8712,-5.0772
158.9913,-5.1869,-4.9128,-5.0842
159.03,-4.961,-5.3208,-4.686
159.0686,-5.1517,-5.5859,-4.8934
159.1073,-4.8832,-4.9873,-5.6474
159.1459,-5.062,-5.2997,-4.6393
159.1846,-4.9354,-4.9291,-4.8966
159.2232,-5.5627,-4.8465,-4.7606
159.2619,-5.1917,-5.0911,-4.7024
159.3005,-5.1745,-5.1051,-4.837
159.3392,-4.8664,-4.9276,-4.6012
159.3778,-4.9169,-5.2796,-4.6679
159.4165,-4.8221,-5.758,-4.6913
159.4551,-5.0619,-5.1967,-4.4742
159.4938,-4.9887,-5.3335,-4.4498
159.5324,-4.7098,-4.9792,-5.4845
159.571,-5.1577,-4.957,-4.8224
159.6097,-5.0354,-5.2725,-4.6292
159.6483,-4.8845,-5.051,-5.1612
159.687,-4.8827,-5.1481,-4.6582
159.7256,-5.0176,-4.9471,-4.6331
159.7643,-4.7105,-4.8458,-4.8571
159.8029,-5.0766,-5.3379,-4.9833
159.8416,-5.0648,-5.1652,-4.9455
159.8802,-5.065,-4.993,-4.3986
159.9189,-5.604,-5.2895,-5.2334
159.9575,-4.981,-4.8006,-4.7181
159.9962,-4.9141,-5.245,-4.6784
160.0348,-5.4191,-5.5226,-4.6766
160.0734,-5.1236,-5.4475,-4.9257
160.1121,-5.1531,-5.1364,-4.5378
160.1507,-4.7088,-5.0163,-4.7601
160.1894,-4.9689,-5.3069,-4.6163
160.228,-5.1372,-5.1784,-4.3591
160.2667,-4.7074,-5.0124,-4.8223
160.3053,-5.4778,-4.7807,-4.8389
160.344,-4.8957,-5.0374,-4.7756
160.3826,-5.0019,-5.5256,-4.9324
160.4213,-5.058,-5.3291,-4.8346
160.4599,-4.8702,-5.2299,-4.495
160.4986,-4.9605,-5.4701,-4.9628
160.5372,-5.529,-5.2313,-4.7632
160.5759,-4.6369,-4.8042,-4.7335
160.6145,-4.9021,-4.8988,-4.671
160.6531,-4.8628,-4.9791,-4.8645
160.6918,-4.9311,-5.5147,-4.5816
160.7304,-5.0762,-5.3564,-4.5566
160.7691,-4.7183,-4.8266,-4.6084
160.8077,-4.6896,-4.8202,-4.9044
160.8464,-5.0728,-5.2231,-4.4837
160.885,-5.1428,-5.1283,-4.7742
160.9237,-5.0828,-5.0243,-5.2256
160.9623,-4.892,-4.7495,-4.6149
161.001,-5.4717,-5.5604,-4.515
161.0396,-5.0565,-5.0627,-4.7894
161.0783,-5.0912,-4.8632,-4.7675
161.1169,-5.4564,-4.8205,-5.0282
161.1555,-4.8717,-5.0227,-4.6159
161.1942,-4.8086,-5.0015,-4.6281
161.2328,-5.3727,-5.0967,-4.9164
161.2715,-5.2904,-5.1633,-4.8094
161.3101,-5.3821,-5.1518,-4.941
161.3488,-5.169,-5.4677,-5.0264
161.3874,-4.9189,-5.7229,-4.8281
161.4261,-4.8656,-5.3654,-4.8389
161.4647,-5.6684,-5.3115,-4.3171
161.5034,-4.8818,-4.9109,-5.0657
161.542,-4.7915,-5.2015,-4.9386
161.5807,-4.8803,-5.2007,-5.0245
161.6193,-5.0339,-4.9365,-5.0292
161.658,-5.0086,-5.3426,-4.7544
161.6966,-4.7373,-5.2809,-4.7217
161.7352,-5.0796,-5.463,-4.5514
161.7739,-5.0335,-5.2261,-4.6594
161.8125,-5.0602,-5.354,-5.2107
161.8512,-4.7996,-4.9649,-5.0536
161.8898,-5.0069,-4.7729,-4.7225
161.9285,-4.9893,-5.01,-4.7974
161.9671,-5.3679,-5.4288,-4.6144
162.0058,-5.0087,-5.0991,-4.9127
162.0444,-5.4795,-5.1723,-4.986
162.0831,-5.0455,-5.3891,-4.8128
162.1217,-4.8511,-5.5452,-4.7123
162.1604,-4.9482,-5.1999,-5.4818
162.199,-4.9199,-5.0831,-4.7314
162.2376,-4.9686,-4.9752,-4.7223
162.2763,-4.8362,-5.1566,-4.7918
162.3149,-4.8376,-4.9651,-5.0463
162.3536,-5.1143,-5.2311,-5.3418
162.3922,-4.9528,-5.1033,-4.7685
162.4309,-4.6607,-5.2734,-4.5461
162.4695,-5.257,-4.934,-5.2544
162.5082,-4.7056,-4.9772,-4.9844
162.5468,-5.2718,-5.0358,-4.4412
162.5855,-4.8539,-5.1795,-4.6918
162.6241,-4.9906,-5.0864,-4.5626
162.6628,-5.0126,-5.0233,-4.6403
162.7014,-5.0253,-5.0248,-4.8687
162.7401,-5.0635,-5.2984,-4.9242
162.7787,-4.7756,-5.262,-4.4631
162.8173,-4.8209,-5.2172,-4.5501
162.856,-5.1139,-5.0271,-4.875
162.8946,-5.038,-5.2163,-4.7522
162.9333,-4.9681,-5.0942,-4.9824
162.9719,-5.1802,-5.2751,-4.2765
163.0106,-5.1186,-5.2757,-4.792
163.0492,-4.8938,-5.5672,-4.7292
163.0879,-5.1433,-5.6333,-5.037
163.1265,-5.478,-4.7133,-5.1569
163.1652,-4.8317,-4.599,-4.7546
163.2038,-4.9583,-5.1394,-5.0205
163.2425,-5.0126,-5.7264,-5.3921
163.2811,-4.8052,-4.9711,-4.991
163.3197,-5.0129,-4.9738,-4.9527
163.3584,-4.8526,-4.9803,-5.5057
163.397,-5.2859,-5.3972,-5.8006
163.4357,-5.4261,-5.1415,-5.1526
163.4743,-5.1864,-5.4471,-5.309
163.513,-5.0693,-4.8943,-4.9137
163.5516,-4.8207,-5.1385,-5.1022
163.5903,-5.0881,-4.7778,-4.9881
163.6289,-4.8759,-5.152,-4.552
163.6676,-5.202,-5.34,-4.9732
163.7062,-5.1024,-4.9077,-4.6866
163.7449,-5.0213,-5.2875,-5.1376
163.7835,-4.9298,-5.7077,-4.6264
163.8222,-5.2198,-5.0315,-4.6398
163.8608,-5.1737,-5.187,-4.923
163.8994,-4.7364,-5.3698,-4.8132
163.9381,-4.7474,-5.2523,-4.7795
163.9767,-5.2443,-5.4314,-5.1132
164.0154,-5.1835,-5.1525,-5.0105
164.054,-4.7754,-5.1092,-4.6325
164.0927,-5.0367,-6.328,-4.9044
164.1313,-4.8533,-4.7726,-4.66
164.17,-5.0576,-5.2542,-5.1527
164.2086,-5.4275,-4.9896,-4.9049
164.2473,-4.8543,-5.0783,-5.0075
164.2859,-5.6841,-5.6331,-4.7967
164.3246,-5.0244,-5.4044,-4.8106
164.3632,-4.9884,-5.0367,-4.8224
164.4018,-4.9012,-5.5032,-4.784
164.4405,-5.2245,-5.0567,-4.9135
164.4791,-4.7886,-4.9879,-4.5038
164.5178,-4.9108,-5.4006,-4.7065
164.5564,-5.0277,-5.1265,-5.4026
164.5951,-4.7869,-5.3688,-4.7086
164.6337,-5.0294,-5.2128,-4.6935
164.6724,-4.9997,-5.1494,-4.4777
164.711,-4.8781,-4.9229,-4.7795
164.7497,-4.8276,-5.2053,-4.7428
164.7883,-4.7286,-5.5034,-4.7408
164.827,-5.2091,-5.418,-4.5575
164.8656,-5.2065,-5.3103,-5.0142
164.9042,-4.7818,-4.9702,-4.7479
164.9429,-4.893,-4.9975,-4.3701
164.9815,-4.842,-5.2258,-4.7168
165.0202,-4.8863,-5.1388,-5.3062
165.0588,-5.3194,-5.1099,-4.8183
165.0975,-4.9237,-5.353,-4.8767
165.1361,-5.176,-5.2729,-4.9191
165.1748,-5.1457,-5.4885,-5.3448
165.2134,-5.0254,-5.1238,-4.4909
165.2521,-4.9207,-5.0112,-4.7845
165.2907,-5.0715,-5.3399,-4.666
165.3294,-5.5628,-4.9355,-5.0534
165.368,-5.1832,-4.8076,-5.0038
165.4067,-4.8855,-5.1229,-4.5952
165.4453,-5.0015,-5.0531,-4.7525
165.4839,-4.8819,-4.9345,-4.7713
165.5226,-4.9893,-5.1142,-5.2079
165.5612,-4.9659,-4.9818,-4.8151
165.5999,-4.9693,-5.3655,-4.92
165.6385,-4.9914,-4.8408,-4.654
165.6772,-4.8103,-5.1404,-4.6778
165.7158,-5.1001,-5.04,-4.6834
165.7545,-5.0165,-5.2977,-4.9411
165.7931,-4.9119,-5.1355,-4.7187
165.8318,-5.1625,-4.9364,-4.5556
165.8704,-5.0417,-5.0092,-4.9483
165.9091,-5.2526,-5.1226,-4.6841
165.9477,-4.8399,-5.2424,-4.8095
165.9863,-5.3094,-5.1137,-4.4121
166.025,-5.251,-5.3833,-4.6196
166.0636,-5.2852,-5.6691,-4.6035
166.1023,-4.8641,-5.2986,-4.6945
166.1409,-4.7677,-4.9825,-5.7103
166.1796,-5.2873,-6.8514,-4.8202
166.2182,-5.2346,-5.1252,-4.5165
166.2569,-4.8123,-5.1141,-5.1475
166.2955,-5.0817,-4.9253,-4.5315
166.3342,-5.2966,-5.1737,-5.2508
166.3728,-4.9791,-5.4102,-4.784
166.4115,-4.684,-5.4249,-4.7094
166.4501,-4.9397,-5.3704,-4.5216
166.4888,-5.0791,-5.2459,-4.6432
166.5274,-4.9261,-5.549,-5.0078
166.566,-4.928,-5.917,-4.7335
166.6047,-4.9946,-5.2684,-4.9926
166.6433,-5.1723,-4.9067,-4.993
166.682,-4.7254,-5.3713,-5.2481
166.7206,-4.8887,-5.2851,-4.5747
166.7593,-4.9808,-5.1257,-4.6126
166.7979,-4.7228,-5.7655,-4.7498
166.8366,-5.2455,-5.1346,-4.8764
166.8752,-4.9052,-5.0767,-4.4898
166.9139,-5.5193,-5.1805,-4.8184
166.9525,-5.0208,-5.2855,-4.5774
166.9912,-5.3743,-5.208,-4.8296
167.0298,-5.1482,-5.6193,-4.7505
167.0684,-5.0783,-5.1267,-5.0574
167.1071,-5.0577,-5.4095,-4.4359
167.1457,-5.0346,-5.2669,-4.6941
167.1844,-5.1837,-5.2906,-4.8893
167.223,-5.1878,-5.0975,-4.8779
167.2617,-4.8391,-5.0766,-4.8967
167.3003,-4.6589,-5.0856,-4.5767
167.339,-5.5755,-5.2652,-4.6097
167.3776,-5.1145,-5.2609,-4.7871
167.4163,-4.9111,-5.3388,-4.8599
167.4549,-5.3513,-6.1684,-4.7161
167.4936,-6.3751,-5.708,-4.7337
167.5322,-5.0769,-5.1934,-5.0266
167.5709,-5.3386,-5.1399,-4.6999
167.6095,-5.2677,-5.6587,-5.1888
167.6481,-4.9977,-5.1288,-5.0164
167.6868,-5.359,-4.8984,-5.205
167.7254,-4.9576,-5.2473,-4.6068
167.7641,-5.1137,-5.2297,-4.5895
167.8027,-5.5287,-4.9266,-5.0221
167.8414,-5.1568,-5.2882,-5.1227
167.88,-4.9221,-5.084,-4.5575
167.9187,-5.0834,-5.7388,-4.8608
167.9573,-5.2547,-5.3244,-4.6238
167.996,-4.6629,-5.0199,-4.696
168.0346,-5.0496,-5.0366,-4.7932
168.0733,-4.9136,-4.8473,-4.5862
168.1119,-5.1012,-5.2461,-4.8044
168.1505,-5.4385,-5.7851,-4.9448
168.1892,-5.1155,-5.8122,-4.8145
168.2278,-4.8029,-5.2877,-4.9758
168.2665,-4.9651,-4.9639,-5.2785
168.3051,-4.7238,-5.0505,-4.6249
168.3438,-4.7539,-5.1245,-4.8979
168.3824,-4.9858,-5.0447,-5.1914
168.4211,-4.9994,-5.3517,-5.1639
168.4597,-4.9182,-5.2796,-4.6516
168.4984,-5.0619,-4.974,-4.6702
168.537,-5.1938,-4.9526,-4.9993
168.5757,-5.1175,-5.1795,-5.0655
168.6143,-5.0306,-5.2567,-4.6598
168.653,-5.3415,-5.3909,-4.8107
168.6916,-4.744,-5.0607,-4.7076
168.7302,-5.4844,-5.2557,-5.5358
168.7689,-5.0519,-5.2098,-4.443
168.8075,-4.6849,-5.343,-4.5373
168.8462,-5.8645,-5.4716,-5.1357
168.8848,-4.8405,-5.5971,-4.5317
168.9235,-4.7345,-5.1412,-4.7918
168.9621,-5.131,-5.1683,-5.4168
169.0008,-4.8818,-5.1969,-4.792
169.0394,-4.7841,-5.7507,-4.9085
169.0781,-5.1467,-4.8943,-4.8628
169.1167,-5.0025,-5.3755,-4.5092
169.1554,-4.9135,-4.9366,-4.5005
169.194,-5.4337,-5.7094,-5.442
169.2326,-5.6141,-5.0995,-4.9584
169.2713,-5.1217,-5.0056,-4.956
169.3099,-4.4888,-4.9428,-4.9006
169.3486,-5.0835,-5.1675,-4.8127
169.3872,-5.2611,-5.3056,-5.0873
169.4259,-5.0932,-4.806,-4.7349
169.4645,-4.9772,-5.4397,-4.8661
169.5032,-5.6449,-5.0861,-5.5791
169.5418,-5.12,-5.7769,-5.3198
169.5805,-5.1678,-5.2601,-5.1593
169.6191,-5.1441,-5.2513,-5.5309
169.6578,-5.2758,-5.3422,-4.8313
169.6964,-4.9363,-5.5193,-4.5475
169.7351,-4.8238,-5.3692,-4.6837
169.7737,-5.1908,-5.0858,-4.9268
169.8123,-4.8542,-5.8023,-5.7795
169.851,-4.8642,-5.1324,-4.5773
169.8896,-5.0211,-5.4735,-4.4916
169.9283,-5.3015,-4.7504,-4.2669
169.9669,-5.0255,-4.7789,-4.2373
170.0056,-5.1436,-5.0698,-4.5915
170.0442,-5.0325,-5.053,-4.5949
170.0829,-5.012,-5.187,-4.5379
170.1215,-5.0907,-5.2887,-4.5639
170.1602,-4.7311,-5.155,-4.9263
170.1988,-5.1913,-5.1741,-4.656
170.2375,-4.9717,-5.5044,-4.5782
170.2761,-4.9175,-5.5666,-4.4881
170.3147,-5.9692,-5.3311,-4.5556
170.3534,-5.4843,-5.2204,-4.579
170.392,-5.4213,-5.0606,-4.5191
170.4307,-5.1441,-5.0408,-5.1815
170.4693,-5.6919,-5.1879,-4.7259
170.508,-4.8142,-5.1261,-5.6813
170.5466,-5.4515,-5.4122,-4.6231
170.5853,-4.8631,-5.344,-4.6086
170.6239,-4.9891,-4.7761,-5.1337
170.6626,-4.6613,-5.8753,-4.7294
170.7012,-5.0912,-5.2597,-5.011
170.7399,-4.906,-5.2773,-4.9339
170.7785,-4.8507,-5.2507,-4.702
170.8172,-4.8766,-5.0293,-4.4386
170.8558,-5.0112,-5.0588,-4.6146
170.8944,-5.917,-5.2874,-4.7347
170.9331,-4.8044,-5.6723,-5.0394
170.9717,-5.4385,-5.2069,-4.5383
171.0104,-4.7804,-5.211,-5.095
171.049,-5.1077,-5.2125,-4.7103
171.0877,-5.3325,-5.1355,-5.0716
171.1263,-5.1257,-5.4134,-4.5712
171.165,-5.2475,-5.1615,-5.0268
171.2036,-4.9929,-5.387,-4.8947
171.2423,-5.0322,-5.0089,-4.7694
171.2809,-4.8977,-5.311,-4.8078
171.3196,-4.8415,-5.1891,-5.4521
171.3582,-4.9315,-4.9982,-4.5678
171.3968,-4.8363,-5.0117,-4.4645
171.4355,-4.7495,-4.9091,-4.5454
171.4741,-4.6728,-5.4906,-4.5345
171.5128,-4.9682,-5.3455,-4.7615
171.5514,-5.0714,-5.0968,-4.8332
171.5901,-4.8313,-5.2144,-4.7501
171.6287,-5.1384,-5.0571,-5.3124
171.6674,-5.1211,-4.9362,-4.7615
171.706,-4.9012,-5.3904,-5.3049
171.7447,-4.8518,-5.0929,-4.9338
171.7833,-4.7745,-5.2427,-5.2162
171.822,-5.0914,-5.1957,-4.672
171.8606,-5.242,-5.0766,-5.0744
171.8993,-5.1217,-5.2392,-5.295
171.9379,-4.9434,-5.5862,-4.9964
171.9765,-5.349,-5.2069,-4.7931
172.0152,-4.7285,-5.4174,-4.6617
172.0538,-5.2714,-5.0237,-5.2472
172.0925,-4.7579,-5.2156,-4.5686
172.1311,-4.8127,-5.1753,-4.8048
172.1698,-4.7837,-6.0052,-4.4601
172.2084,-4.9569,-6.1313,-4.7758
172.2471,-5.098,-5.3857,-4.8985
172.2857,-5.3735,-5.3029,-4.6424
172.3244,-5.362,-5.3239,-4.4483
172.363,-5.0245,-5.3286,-4.6493
172.4017,-4.981,-5.4357,-5.0521
172.4403,-5.6545,-5.3416,-4.8839
172.4789,-5.4619,-5.1893,-5.2475
172.5176,-5.0133,-5.0257,-4.9036
172.5562,-5.2525,-5.1639,-4.7464
172.5949,-4.8739,-5.339,-4.7189
172.6335,-5.0109,-5.2362,-5.0001
172.6722,-4.9842,-5.4898,-4.5561
172.7108,-5.1464,-4.9572,-4.3801
172.7495,-5.1618,-5.4057,-4.9083
172.7881,-5.4796,-5.0937,-5.1462
172.8268,-5.0161,-5.1517,-4.5984
172.8654,-4.68,-5.7022,-4.7363
172.9041,-4.9313,-4.9883,-4.9386
172.9427,-4.698,-5.1556,-4.8956
172.9814,-4.8911,-5.3511,-4.6408
173.02,-5.0141,-4.8258,-5.1757
173.0586,-5.2216,-5.2433,-4.6043
173.0973,-4.7362,-5.2196,-4.7928
173.1359,-5.1144,-4.9752,-4.6312
173.1746,-5.0549,-5.3733,-4.8268
173.2132,-4.688,-5.031,-4.9839
173.2519,-5.0254,-5.4792,-5.1188
173.2905,-5.266,-5.3178,-4.5733
173.3292,-4.8377,-5.225,-5.2016
173.3678,-5.6393,-5.6288,-5.2658
173.4065,-4.9054,-5.3979,-4.6681
173.4451,-4.7913,-5.0898,-4.5669
173.4838,-4.8138,-5.1401,-4.5974
173.5224,-5.0051,-5.4402,-4.7803
173.561,-4.7734,-5.1435,-5.2073
173.5997,-5.1453,-5.4245,-4.6387
173.6383,-4.8681,-5.3575,-5.0498
173.677,-4.8241,-4.9604,-4.5099
173.7156,-5.0891,-5.3072,-4.7192
173.7543,-4.7765,-5.1626,-5.1983
173.7929,-4.8136,-5.1468,-4.51
173.8316,-4.9126,-4.9554,-5.4026
173.8702,-4.916,-5.0857,-4.5123
173.9089,-4.9739,-5.2002,-5.3062
173.9475,-5.2736,-5.671,-5.5791
173.9862,-5.4689,-5.1373,-4.5134
174.0248,-5.0034,-5.2659,-4.5795
174.0635,-4.7741,-5.0016,-4.9787
174.1021,-4.8636,-5.0729,-4.7315
174.1407,-5.1501,-5.2021,-4.7439
174.1794,-4.6382,-4.8658,-4.651
174.218,-5.7931,-5.1104,-4.5633
174.2567,-5.0473,-4.9986,-5.172
174.2953,-5.1186,-5.3106,-4.9405
174.334,-4.8794,-5.1437,-4.6581
174.3726,-5.1425,-5.0051,-4.9795
174.4113,-4.8368,-5.8485,-5.2534
174.4499,-5.2958,-5.2649,-5.3168
174.4886,-5.5719,-5.4396,-4.5403
174.5272,-4.6772,-4.922,-6.3255
174.5659,-4.8202,-5.1659,-4.6085
174.6045,-5.3343,-5.0077,-4.3127
174.6431,-5.0562,-5.4353,-5.3131
174.6818,-5.0885,-5.6792,-4.9114
174.7204,-5.1444,-4.83,-5.144
174.7591,-5.7253,-5.1064,-4.8904
174.7977,-4.7206,-4.9033,-5.3166
174.8364,-5.0072,-5.2113,-4.9328
174.875,-4.7254,-5.8779,-5.0134
174.9137,-4.7667,-5.4629,-4.5878
174.9523,-5.1567,-4.9521,-4.5757
174.991,-5.0526,-5.4785,-4.8102
175.0296,-5.1668,-4.9102,-4.6505
175.0683,-5.401,-5.426,-5.3633
175.1069,-5.3941,-5.4802,-4.7134
175.1455,-4.8054,-4.9733,-5.4391
175.1842,-5.2036,-5.6163,-4.5043
175.2228,-4.8878,-4.7857,-4.6583
175.2615,-4.8136,-5.8073,-5.6433
175.3001,-4.8567,-5.5898,-4.7575
175.3388,-5.2591,-5.5388,-5.3851
175.3774,-4.7582,-5.3339,-4.7949
175.4161,-4.8135,-5.2093,-4.8843
175.4547,-4.9691,-5.2523,-4.7697
175.4934,-4.764,-5.2833,-4.9906
175.532,-5.0677,-5.2256,-4.6252
175.5707,-5.5101,-5.2275,-4.7838
175.6093,-5.1497,-5.4519,-4.722
175.648,-5.1918,-5.5155,-4.6021
175.6866,-5.4409,-5.003,-4.8297
175.7252,-4.8403,-5.0886,-4.602
175.7639,-4.5764,-5.2798,-4.5742
175.8025,-5.1619,-4.984,-4.554
175.8412,-4.91,-5.0106,-5.0103
175.8798,-4.7369,-5.0377,-4.9733
175.9185,-5.2459,-5.3681,-4.8675
175.9571,-5.2227,-6.2482,-4.8676
175.9958,-4.877,-5.3076,-4.8966
176.0344,-5.1131,-5.4529,-5.2656
176.0731,-5.2542,-5.1281,-4.9956
176.1117,-5.3412,-5.373,-4.7026
176.1504,-4.8686,-5.0168,-5.0551
176.189,-4.8897,-5.4606,-5.7956
176.2276,-5.1375,-5.1468,-4.9511
176.2663,-4.8007,-5.5496,-5.0767
176.3049,-5.0136,-5.1981,-5.2551
176.3436,-5.0137,-5.5031,-4.6325
176.3822,-5.2091,-5.3158,-4.4346
176.4209,-5.0613,-5.3146,-4.9437
176.4595,-4.9725,-5.3157,-4.6658
176.4982,-5.1975,-5.1343,-5.23
176.5368,-5.1782,-5.4798,-4.6288
176.5755,-4.8385,-5.1458,-5.8618
176.6141,-4.9356,-5.1911,-4.936
176.6528,-4.9619,-5.4698,-4.8688
176.6914,-4.6038,-5.2838,-5.3886
176.7301,-4.766,-4.9429,-4.8543
176.7687,-4.9523,-5.0665,-4.5956
176.8073,-4.7144,-5.288,-4.7859
176.846,-5.0656,-4.9825,-5.553
176.8846,-4.9314,-5.142,-4.8923
176.9233,-4.8698,-5.1387,-4.9603
176.9619,-4.8243,-5.2729,-4.8049
177.0006,-4.8038,-5.0428,-4.7829
177.0392,-4.7401,-5.8293,-4.8266
177.0779,-5.059,-5.7468,-4.8436
177.1165,-5.0873,-5.2746,-5.1121
177.1552,-5.0815,-5.404,-5.294
177.1938,-4.8346,-5.7718,-4.8868
177.2325,-4.7054,-5.3046,-4.6315
177.2711,-5.0084,-5.7111,-4.6997
177.3097,-4.8929,-5.1175,-4.9497
177.3484,-4.8275,-5.3463,-4.8679
177.387,-4.9672,-4.8465,-4.3633
177.4257,-4.8174,-5.6784,-4.5958
177.4643,-5.0194,-6.2245,-4.4725
177.503,-4.8233,-5.1996,-4.69
177.5416,-5.0859,-5.2662,-5.0086
177.5803,-4.8166,-5.3341,-5.2947
177.6189,-4.8706,-5.3994,-4.6033
177.6576,-5.3269,-5.2485,-5.2012
177.6962,-4.9709,-5.0996,-5.3117
177.7349,-4.9355,-5.2211,-5.1341
177.7735,-5.2292,-5.0825,-4.8473
177.8122,-5.0679,-6.2259,-5.1278
177.8508,-4.832,-5.291,-4.7456
177.8894,-4.8262,-4.8909,-4.5558
177.9281,-4.6805,-5.0465,-4.7949
177.9667,-5.1697,-5.2496,-5.2205
178.0054,-4.704,-5.0389,-5.2634
178.044,-4.9911,-5.5046,-5.0284
178.0827,-4.933,-5.0502,-5.4356
178.1213,-5.5097,-5.2284,-4.7991
178.16,-5.1192,-5.5086,-4.7901
178.1986,-4.8212,-5.1606,-5.5916
178.2373,-5.0752,-5.1274,-4.8526
178.2759,-4.8543,-4.9019,-4.5146
178.3146,-4.932,-5.2618,-5.7616
178.3532,-4.7858,-5.3904,-4.683
178.3918,-4.6585,-4.9935,-4.455
178.4305,-4.9794,-5.4954,-4.6577
178.4691,-5.5163,-5.6953,-5.0217
178.5078,-4.9016,-5.0614,-5.0599
178.5464,-4.6885,-5.3801,-5.1364
178.5851,-4.8925,-5.0998,-4.9893
178.6237,-5.0814,-5.4841,-4.701
178.6624,-5.076,-6.8693,-4.9691
178.701,-5.1128,-4.9858,-4.5536
178.7397,-4.8454,-5.315,-4.8193
178.7783,-5.0669,-5.2305,-5.2522
178.817,-4.9302,-5.2035,-4.5155
178.8556,-4.7894,-5.1805,-5.499
178.8943,-4.7773,-5.0589,-5.1894
178.9329,-4.6694,-5.0482,-4.7176
178.9715,-5.0825,-4.9256,-4.9725
179.0102,-4.7543,-5.1294,-5.0644
179.0488,-4.8809,-5.0658,-4.6586
179.0875,-4.7622,-5.1274,-4.9208
179.1261,-5.1632,-5.0622,-4.5958
179.1648,-4.677,-5.006,-4.7501
179.2034,-5.1753,-5.2977,-4.8045
179.2421,-4.6337,-4.8749,-4.6287
179.2807,-4.4752,-4.8008,-4.5907
179.3194,-5.2141,-5.2882,-4.9193
179.358,-4.7393,-5.3567,-4.6567
179.3967,-4.7395,-4.9988,-4.982
179.4353,-4.6089,-5.0592,-4.728
179.4739,-4.6758,-5.3469,-5.1371
179.5126,-4.4704,-4.9177,-4.5065
179.5512,-4.5397,-4.9178,-4.4462
179.5899,-4.7692,-5.475,-4.6867
179.6285,-4.6915,-5.1453,-5.059
179.6672,-4.5156,-4.8967,-4.787
179.7058,-4.4834,-5.1671,-4.7661
179.7445,-4.4806,-5.1267,-4.9718
179.7831,-4.3499,-5.1904,-4.3806
179.8218,-4.3166,-5.0232,-4.377
179.8604,-4.2539,-4.8738,-4.4914
179.8991,-3.6792,-4.5102,-4.0988
179.9377,-3.2463,-4.0583,-3.9397
179.9764,-3.6182,-4.3504,-3.9399
180.015,-4.1921,-4.9489,-4.6969
180.0536,-4.3575,-6.1979,-5.1915
180.0923,-4.3524,-5.1206,-4.6436
180.1309,-4.4989,-4.796,-4.5232
180.1696,-4.9916,-5.4455,-4.8517
180.2082,-4.8805,-5.1765,-4.6994
180.2469,-4.76,-5.0497,-4.5893
180.2855,-5.0269,-5.1214,-4.7146
180.3242,-5.0568,-5.4168,-5.0991
180.3628,-4.793,-6.1198,-5.165
180.4015,-5.3455,-5.1646,-4.6613
180.4401,-5.0124,-4.8947,-4.9672
180.4788,-5.0682,-5.6217,-5.3213
180.5174,-5.4506,-5.3634,-4.8429
180.556,-5.3446,-5.1503,-5.0778
180.5947,-5.0303,-5.3125,-4.84
180.6333,-5.1666,-5.3774,-4.79
180.672,-5.0655,-5.1757,-4.9555
180.7106,-5.0086,-5.0384,-5.2541
180.7493,-5.6189,-5.0482,-5.5834
180.7879,-5.3554,-5.7391,-4.9753
180.8266,-4.7612,-5.4557,-4.6033
180.8652,-5.3354,-5.246,-5.0845
180.9039,-5.0435,-5.8854,-4.6979
180.9425,-5.7299,-5.1237,-4.9773
180.9812,-5.0371,-5.6456,-5.1358
181.0198,-5.095,-5.2665,-4.8937
181.0585,-4.9166,-4.8889,-4.6048
181.0971,-4.7921,-5.4101,-4.7154
181.1357,-5.1008,-5.3833,-4.7837
181.1744,-5.2594,-5.6077,-4.5409
181.213,-5.3433,-5.2384,-5.5993
181.2517,-4.9381,-5.1016,-5.2757
181.2903,-4.8006,-5.4483,-5.1431
181.329,-4.9419,-5.2713,-4.5899
181.3676,-4.7619,-4.9709,-4.9414
181.4063,-5.6603,-5.0038,-5.0015
181.4449,-5.7636,-5.4932,-5.1521
181.4836,-4.8403,-5.0634,-4.5765
181.5222,-5.189,-5.1362,-5.078
181.5609,-5.3761,-5.1337,-4.5912
181.5995,-4.676,-5.0393,-4.8639
181.6381,-5.0546,-5.3081,-4.5411
181.6768,-4.9845,-4.8821,-4.857
181.7154,-4.9229,-5.5019,-4.4601
181.7541,-5.3408,-5.6621,-4.7555
181.7927,-5.2864,-5.2117,-5.0423
181.8314,-5.2989,-5.8038,-4.8352
181.87,-5.3588,-5.2699,-4.6618
181.9087,-5.9664,-5.6684,-4.5425
181.9473,-5.1735,-5.2044,-5.0779
181.986,-5.2042,-5.8917,-5.2712
182.0246,-4.7866,-4.8924,-4.6736
182.0633,-5.0438,-5.1327,-5.0244
182.1019,-4.9356,-5.289,-4.8682
182.1406,-4.9866,-5.3429,-5.0996
182.1792,-5.4581,-6.1755,-5.0037
182.2178,-5.0284,-5.6635,-4.9835
182.2565,-4.9889,-5.4286,-4.6612
182.2951,-5.3017,-5.4397,-5.5841
182.3338,-5.0996,-5.3057,-4.4972
182.3724,-5.5266,-5.4602,-5.0039
182.4111,-5.0102,-5.2273,-4.7833
182.4497,-5.115,-5.5621,-4.7224
182.4884,-5.285,-5.2923,-4.4019
182.527,-4.9046,-5.1113,-4.7445
182.5657,-5.6489,-5.4338,-5.1339
182.6043,-5.2321,-4.9579,-4.8716
182.643,-5.0476,-5.1065,-4.5721
182.6816,-4.9362,-5.512,-5.4083
182.7202,-5.0942,-4.8849,-4.7679
182.7589,-5.1708,-6.0681,-4.7157
182.7975,-5.0967,-5.1235,-4.848
182.8362,-4.7848,-5.4945,-4.6341
182.8748,-4.9541,-5.3347,-4.9012
182.9135,-5.0007,-5.4191,-5.0743
182.9521,-5.8924,-5.1603,-5.1635
182.9908,-5.0576,-5.9115,-4.7232
183.0294,-5.7429,-5.1328,-4.7225
183.0681,-5.0944,-5.0124,-5.0073
183.1067,-5.096,-5.1581,-5.5369
183.1454,-5.1795,-4.9173,-4.6609
183.184,-4.7957,-5.1161,-4.6735
183.2227,-5.4167,-5.0524,-4.6405
183.2613,-4.8836,-5.7702,-4.9213
183.2999,-4.7747,-5.1439,-5.3602
183.3386,-5.1275,-5.3986,-5.1575
183.3772,-4.9578,-5.3516,-4.9614
183.4159,-5.0532,-5.2399,-5.0935
183.4545,-5.6088,-5.0473,-4.8654
183.4932,-4.9679,-5.0688,-4.5394
183.5318,-4.8019,-5.6732,-5.2043
183.5705,-5.6414,-5.8335,-4.8755
183.6091,-4.6618,-5.3011,-4.9321
183.6478,-5.0926,-5.2132,-4.7987
183.6864,-5.1163,-5.039,-5.1505
183.7251,-5.1582,-5.4783,-4.9362
183.7637,-4.8215,-5.5302,-4.6907
183.8023,-5.0348,-5.0004,-5.1769
183.841,-4.9638,-5.7785,-4.8339
183.8796,-6.1394,-5.2894,-4.7685
183.9183,-5.5571,-5.1099,-5.2649
183.9569,-5.3372,-5.1275,-4.7336
183.9956,-6.0999,-5.1312,-4.7047
184.0342,-5.3284,-5.0032,-4.7691
184.0729,-4.9696,-5.1991,-4.6415
184.1115,-5.094,-5.5605,-4.8996
184.1502,-4.9228,-5.8279,-5.1352
184.1888,-5.5502,-5.5134,-4.5037
184.2275,-4.8991,-5.3292,-4.5537
184.2661,-4.8034,-5.011,-4.5775
184.3047,-4.8894,-5.4275,-4.9487
184.3434,-5.0535,-5.3567,-4.9737
184.382,-4.9244,-6.0143,-4.645
184.4207,-5.1013,-5.4242,-4.7661
184.4593,-5.3312,-4.9471,-5.0109
184.498,-4.9285,-5.1157,-4.5155
184.5366,-5.2109,-5.0894,-4.7974
184.5753,-5.5486,-5.9684,-4.8532
184.6139,-4.8637,-5.1623,-4.9189
184.6526,-4.9433,-5.071,-5.2618
184.6912,-4.9824,-4.9924,-4.5266
184.7299,-4.9947,-5.0051,-4.9382
184.7685,-4.8955,-4.9554,-4.9517
184.8072,-4.8148,-5.0193,-4.6201
184.8458,-4.9153,-5.5677,-4.6524
184.8844,-4.9044,-5.9816,-4.4971
184.9231,-4.9882,-5.0727,-4.8379
184.9617,-5.1411,-5.3767,-6.1106
185.0004,-5.2804,-5.4639,-4.7217
185.039,-5.1121,-5.1372,-4.9085
185.0777,-4.7686,-5.0918,-5.1303
185.1163,-5.5559,-5.3938,-4.783
185.155,-4.8846,-5.4012,-4.7373
185.1936,-5.227,-5.3184,-4.8636
185.2323,-5.402,-5.1755,-4.881
185.2709,-5.0557,-5.4068,-4.978
185.3096,-6.022,-6.2023,-4.9638
185.3482,-4.9642,-5.3441,-5.0948
185.3868,-5.707,-5.4517,-4.6109
185.4255,-5.0193,-5.4415,-5.1713
185.4641,-5.1166,-5.2166,-4.7174
185.5028,-5.4236,-5.3526,-4.5758
185.5414,-5.0227,-4.9288,-4.7586
185.5801,-5.2396,-5.3218,-5.0009
185.6187,-4.9169,-5.2267,-4.903
185.6574,-4.8865,-5.319,-4.8149
185.696,-4.8542,-5.3001,-4.8268
185.7347,-4.71,-5.1108,-4.5752
185.7733,-4.9852,-5.6372,-4.806
185.812,-4.6802,-4.9179,-4.8538
185.8506,-4.9209,-5.0333,-4.7758
185.8893,-5.1044,-5.3,-4.6312
185.9279,-4.9014,-5.248,-4.9947
185.9665,-5.0003,-5.4029,-4.7264
186.0052,-5.2705,-5.2475,-5.3489
186.0438,-5.4357,-4.9579,-4.7993
186.0825,-4.9146,-5.4366,-5.2752
186.1211,-5.0044,-5.3513,-4.9855
186.1598,-5.2366,-5.5013,-4.6942
186.1984,-5.3034,-5.4191,-4.6298
186.2371,-5.569,-5.4507,-4.5621
186.2757,-5.1526,-5.3233,-4.896
186.3144,-5.2734,-5.1484,-5.0879
186.353,-5.2273,-5.4717,-4.7811
186.3917,-5.1181,-5.2237,-4.8595
186.4303,-5.0974,-5.1956,-4.959
186.4689,-5.0491,-5.6687,-4.7549
186.5076,-5.5478,-5.3065,-4.7242
186.5462,-6.0667,-4.9061,-4.7205
186.5849,-5.0322,-5.6987,-5.1234
186.6235,-5.0117,-5.1274,-4.7495
186.6622,-4.9552,-5.5631,-4.8652
186.7008,-5.0905,-5.2527,-4.612
186.7395,-4.9407,-5.4052,-4.7773
186.7781,-6.2973,-5.2045,-4.7912
186.8168,-5.0921,-5.1286,-5.186
186.8554,-4.9958,-5.8619,-4.7846
186.8941,-4.9732,-5.1044,-4.57
186.9327,-5.5641,-5.2763,-4.7694
186.9714,-5.0154,-5.0826,-5.1476
187.01,-4.6885,-5.3519,-4.9237
187.0486,-5.1504,-5.0638,-4.8914
187.0873,-5.1784,-5.4323,-4.9376
187.1259,-4.7816,-4.9221,-4.8972
187.1646,-5.1132,-5.4463,-4.815
187.2032,-4.7536,-5.441,-4.7609
187.2419,-4.8428,-5.3259,-5.2638
187.2805,-5.1146,-5.6093,-4.7748
187.3192,-5.0423,-5.8935,-5.045
187.3578,-5.0548,-5.379,-4.8775
187.3965,-5.1239,-5.1378,-5.1228
187.4351,-5.0847,-5.3316,-4.883
187.4738,-5.1777,-5.0216,-5.4479
187.5124,-4.751,-5.3794,-5.1015
187.551,-4.8989,-5.6647,-4.434
187.5897,-4.7112,-5.3298,-4.7056
187.6283,-4.9385,-6.1335,-5.6527
187.667,-5.0952,-5.2615,-5.3164
187.7056,-4.9278,-5.2833,-4.874
187.7443,-4.8157,-5.0667,-4.935
187.7829,-5.1912,-5.2622,-5.2501
187.8216,-5.0713,-5.3925,-4.6842
187.8602,-4.9963,-5.5025,-4.6603
187.8989,-4.7649,-5.4108,-4.7398
187.9375,-4.9761,-5.0942,-4.6646
187.9762,-4.9174,-5.1101,-4.7849
188.0148,-4.5928,-5.1274,-4.6221
188.0535,-5.0574,-5.0565,-5.484
188.0921,-5.2535,-5.2057,-4.7231
188.1307,-4.9624,-5.4878,-4.9548
188.1694,-4.8003,-5.0069,-5.0122
188.208,-4.8775,-5.334,-4.4736
188.2467,-4.9904,-5.2494,-5.0253
188.2853,-6.0361,-5.5426,-5.1295
188.324,-4.764,-5.1816,-4.6987
188.3626,-4.6561,-5.4429,-5.4588
188.4013,-5.3099,-5.3724,-5.1545
188.4399,-5.0008,-5.1478,-4.9945
188.4786,-5.1018,-5.2191,-4.777
188.5172,-4.9257,-5.3699,-4.6935
188.5559,-5.4412,-6.2025,-5.2034
188.5945,-5.2167,-5.1973,-4.6376
188.6331,-5.3612,-5.546,-4.9107
188.6718,-5.4154,-5.4661,-4.9119
188.7104,-5.1902,-5.9423,-4.9098
188.7491,-5.6801,-4.9686,-5.4788
188.7877,-4.834,-5.2478,-4.7286
188.8264,-4.9518,-5.2761,-4.5958
188.865,-5.2239,-5.5199,-5.1453
188.9037,-4.9165,-5.5148,-4.5811
188.9423,-4.975,-5.144,-4.7069
188.981,-5.1103,-5.1719,-5.0193
189.0196,-5.1275,-4.9496,-4.5169
189.0583,-5.2881,-5.267,-5.0798
189.0969,-5.4004,-5.1161,-4.6427
189.1356,-5.586,-5.1073,-4.7235
189.1742,-4.9192,-5.1495,-4.9865
189.2128,-5.5604,-5.6828,-4.9608
189.2515,-5.056,-5.888,-5.2365
189.2901,-4.7084,-5.1787,-4.9704
189.3288,-4.9272,-5.0508,-4.8862
189.3674,-5.1686,-5.1313,-5.3168
189.4061,-4.9884,-4.8921,-4.7192
189.4447,-4.9827,-5.1901,-4.9718
189.4834,-5.0888,-5.3569,-4.8377
189.522,-5.0565,-5.5447,-5.4022
189.5607,-5.4421,-5.3988,-5.0965
189.5993,-5.6002,-5.4003,-4.7721
189.638,-4.6899,-5.198,-4.7709
189.6766,-5.4964,-5.3192,-5.0289
189.7152,-5.1853,-5.441,-4.9105
189.7539,-5.3238,-5.5106,-4.7713
189.7925,-5.0579,-5.4336,-5.2801
189.8312,-5.4031,-5.7712,-4.893
189.8698,-4.8305,-5.2038,-4.5463
189.9085,-4.8504,-4.9919,-4.8573
189.9471,-4.8794,-4.4145,-4.1366
189.9858,-5.1999,-4.8958,-4.7442
190.0244,-4.7807,-5.5012,-4.7507
190.0631,-4.9377,-5.2101,-4.9151
190.1017,-4.8445,-5.0647,-4.6351
190.1404,-5.1872,-5.2958,-4.8718
190.179,-4.978,-5.7068,-4.773
190.2177,-4.9822,-5.2638,-4.6092
190.2563,-4.753,-5.2278,-4.8823
190.2949,-4.731,-5.465,-5.0519
190.3336,-5.5244,-5.085,-4.8974
190.3722,-5.3558,-5.5589,-4.6827
190.4109,-4.9588,-5.1715,-4.856
190.4495,-5.2752,-5.0155,-4.8264
190.4882,-5.5479,-5.2208,-4.8062
190.5268,-5.0466,-5.2654,-4.8641
190.5655,-5.5124,-5.1131,-4.7034
190.6041,-4.6512,-5.1458,-4.5151
190.6428,-5.1669,-5.3881,-5.196
190.6814,-5.7227,-5.6322,-5.1137
190.7201,-5.9083,-5.2965,-5.0434
190.7587,-5.9923,-4.9656,-4.6285
190.7973,-5.3244,-4.798,-4.8325
190.836,-4.8674,-5.2322,-5.0508
190.8746,-5.2026,-5.3421,-4.6817
190.9133,-5.2245,-5.4117,-4.7854
190.9519,-5.1193,-5.5857,-4.7034
190.9906,-5.0091,-5.2397,-6.4048
191.0292,-5.129,-5.3258,-5.2154
191.0679,-5.4047,-5.2976,-5.5421
191.1065,-5.0975,-5.1996,-4.8573
191.1452,-5.0484,-5.6325,-4.7863
191.1838,-4.8754,-5.6073,-5.1601
191.2225,-5.1011,-5.5665,-4.9565
191.2611,-5.2827,-5.3406,-4.6759
191.2998,-5.4047,-4.9745,-4.7898
191.3384,-4.8558,-5.2359,-5.0183
191.377,-4.873,-5.1284,-5.2485
191.4157,-5.1284,-5.1245,-5.0441
191.4543,-5.3991,-6.4654,-5.2468
191.493,-5.2035,-5.2549,-4.7319
191.5316,-4.9105,-5.2148,-4.5761
191.5703,-5.308,-5.1735,-4.8062
191.6089,-5.0013,-5.1603,-4.7134
191.6476,-5.1496,-5.1819,-4.9183
191.6862,-5.2796,-4.9155,-4.979
191.7249,-5.2802,-5.4177,-4.9907
191.7635,-5.1086,-5.4187,-4.6691
191.8022,-5.2333,-5.4351,-5.1674
191.8408,-5.3016,-5.226,-4.9554
191.8794,-4.7449,-5.3377,-5.0066
191.9181,-5.0686,-5.2464,-4.802
191.9567,-5.1054,-5.21,-4.8873
191.9954,-5.0159,-5.2318,-5.0536
192.034,-4.9202,-5.2112,-5.0865
192.0727,-5.365,-4.9675,-4.9572
192.1113,-5.1818,-5.0753,-5.4668
192.15,-5.002,-5.3489,-4.6081
192.1886,-5.4432,-5.0692,-5.1676
192.2273,-4.9376,-4.8727,-5.1064
192.2659,-4.9494,-5.0141,-5.0676
192.3046,-5.0823,-5.1742,-4.994
192.3432,-4.8835,-5.5522,-4.7718
192.3819,-4.9212,-4.8753,-5.0587
192.4205,-4.833,-5.3725,-4.7705
192.4591,-4.8851,-5.1264,-4.8566
192.4978,-5.5486,-5.4827,-5.2109
192.5364,-5.5792,-5.6103,-5.5937
192.5751,-5.5869,-5.4746,-4.8116
192.6137,-5.5552,-5.241,-4.7851
192.6524,-5.0335,-5.2697,-5.5279
192.691,-5.5267,-5.1215,-4.6838
192.7297,-5.4376,-5.0671,-4.3617
192.7683,-5.2615,-4.8816,-4.9381
192.807,-5.519,-4.9407,-4.7356
192.8456,-5.2396,-5.0258,-5.639
192.8843,-5.4411,-5.5645,-4.7224
192.9229,-5.1468,-4.956,-4.6675
192.9615,-5.1977,-5.2771,-5.0307
193.0002,-5.2668,-5.396,-5.0962
193.0388,-5.0201,-5.2263,-4.9773
193.0775,-5.0904,-5.706,-5.1596
193.1161,-4.9465,-5.1583,-4.6489
193.1548,-4.8742,-5.2038,-4.7081
193.1934,-4.7316,-5.1129,-4.5557
193.2321,-5.2647,-5.2553,-4.5874
193.2707,-5.6291,-5.1085,-4.9492
193.3094,-5.0944,-5.5282,-5.2028
193.348,-5.0213,-5.4697,-4.6385
193.3867,-5.1535,-5.0723,-4.5991
193.4253,-4.7368,-5.0766,-5.1102
193.464,-5.2531,-4.9318,-5.3325
193.5026,-4.9509,-5.2252,-4.6282
193.5412,-5.2114,-5.2354,-4.8242
193.5799,-5.0728,-5.0038,-4.7627
193.6185,-5.2459,-5.1646,-4.6958
193.6572,-5.3367,-4.9201,-5.0784
193.6958,-4.7372,-5.532,-4.8506
193.7345,-5.8101,-4.6768,-4.5467
193.7731,-4.935,-5.2507,-5.1889
193.8118,-5.2027,-4.9666,-5.1574
193.8504,-4.8617,-4.9293,-4.5022
193.8891,-4.7474,-4.8269,-5.338
193.9277,-5.3749,-4.9485,-4.9706
193.9664,-5.513,-4.791,-5.891
194.005,-5.066,-5.3394,-5.2578
194.0436,-5.2592,-4.9131,-4.6646
194.0823,-5.311,-5.2768,-5.3463
194.1209,-4.9717,-5.3879,-4.7459
194.1596,-5.2406,-4.7501,-5.083
194.1982,-5.3169,-5.1143,-4.7178
194.2369,-4.9542,-5.7468,-4.8941
194.2755,-5.1213,-4.9742,-4.8806
194.3142,-5.0082,-5.4166,-4.7528
194.3528,-5.0497,-5.1663,-5.1502
194.3915,-4.8707,-5.0833,-4.9257
194.4301,-5.052,-5.4101,-4.866
194.4688,-5.0457,-4.9959,-4.8736
194.5074,-4.8356,-5.0175,-4.8707
194.546,-4.9645,-4.8955,-4.8668
194.5847,-4.9409,-5.1961,-5.0884
194.6233,-4.9869,-5.1391,-4.8981
194.662,-5.1377,-4.8707,-4.9069
194.7006,-5.4406,-5.1125,-5.1112
194.7393,-5.7289,-4.9983,-4.8087
194.7779,-4.8091,-5.9583,-5.1421
194.8166,-5.151,-5.2229,-4.7757
194.8552,-5.1222,-5.0673,-4.9295
194.8939,-5.0988,-5.1399,-5.2245
194.9325,-4.9634,-4.9899,-5.6011
194.9712,-4.7783,-5.7839,-5.4806
195.0098,-5.0353,-5.2375,-4.871
195.0485,-5.0779,-4.9928,-5.0253
195.0871,-5.4451,-5.2314,-5.6088
195.1257,-5.2847,-5.1377,-4.5706
195.1644,-5.1367,-5.19,-4.8138
195.203,-5.0499,-5.2293,-4.7195
195.2417,-5.0929,-5.8007,-4.6061
195.2803,-4.9836,-5.1506,-4.7455
195.319,-5.0256,-5.1491,-4.7176
195.3576,-4.9127,-5.1219,-4.659
195.3963,-5.1119,-5.46,-5.1203
195.4349,-5.0611,-5.1974,-5.133
195.4736,-5.3183,-5.2678,-4.7381
195.5122,-4.9154,-4.9148,-4.7568
195.5509,-4.7506,-4.9397,-4.5812
195.5895,-5.1291,-5.1472,-4.6783
195.6281,-5.2751,-5.0421,-4.8964
195.6668,-5.2883,-4.9402,-4.7933
195.7054,-4.8862,-4.8939,-4.6801
195.7441,-5.1023,-4.9693,-4.7803
195.7827,-5.1368,-5.1136,-4.6866
195.8214,-4.6881,-5.3413,-5.0008
195.86,-4.8176,-5.1922,-5.8305
195.8987,-5.3831,-5.1098,-5.0084
195.9373,-5.167,-5.3518,-5.1032
195.976,-5.2853,-5.093,-4.8026
196.0146,-4.908,-4.999,-5.1022
196.0533,-5.0459,-5.315,-4.9697
196.0919,-5.3633,-5.0581,-5.2701
196.1306,-4.7818,-4.8779,-4.9313
196.1692,-5.1706,-5.54,-5.105
196.2078,-5.0771,-4.9445,-4.6185
196.2465,-4.9607,-4.8279,-4.4482
196.2851,-5.2124,-5.0005,-4.8463
196.3238,-4.7873,-4.8917,-5.0577
196.3624,-4.9097,-4.9034,-5.0778
196.4011,-5.112,-5.0822,-5.0145
196.4397,-5.0965,-4.9262,-4.9935
196.4784,-4.9899,-4.8597,-5.0303
196.517,-4.9645,-4.9945,-5.0857
196.5557,-4.9706,-5.1452,-5.6005
196.5943,-5.4349,-4.8177,-4.735
196.633,-4.962,-5.1934,-5.2045
196.6716,-5.346,-5.0616,-5.3749
196.7102,-4.9363,-4.9729,-5.1426
196.7489,-5.2587,-5.2645,-4.536
196.7875,-4.9166,-6.7792,-5.3175
196.8262,-5.3012,-4.9806,-4.9514
196.8648,-5.6466,-4.8463,-4.7241
196.9035,-4.9393,-5.8241,-4.4338
196.9421,-5.0141,-5.0442,-5.7084
196.9808,-4.8589,-5.0992,-4.7694
197.0194,-5.3071,-5.3514,-4.8947
197.0581,-5.3502,-4.7933,-4.8092
197.0967,-5.2966,-5.0904,-4.8509
197.1354,-5.3102,-5.483,-4.5244
197.174,-4.7813,-5.0393,-4.9566
197.2127,-5.501,-4.9746,-4.993
197.2513,-5.1437,-5.1812,-5.0582
197.2899,-4.7934,-5.0036,-4.8126
197.3286,-5.1149,-5.1454,-5.1565
197.3672,-5.1502,-4.6472,-4.8065
197.4059,-5.2122,-5.2185,-4.7544
197.4445,-5.1906,-4.9233,-4.5441
197.4832,-5.1295,-5.4251,-4.7202
197.5218,-5.3613,-4.9732,-4.7726
197.5605,-5.341,-5.0792,-4.8718
197.5991,-5.0768,-5.1577,-4.849
197.6378,-5.8119,-5.0851,-5.272
197.6764,-4.9226,-5.1183,-5.3185
197.7151,-5.5576,-5.3809,-4.6562
197.7537,-5.0645,-4.8788,-4.8287
197.7923,-5.5142,-5.4351,-4.9339
197.831,-5.182,-5.4171,-5.1148
197.8696,-4.9382,-4.9199,-4.8945
197.9083,-4.814,-5.4103,-4.6878
197.9469,-4.8687,-5.2211,-5.0645
197.9856,-4.887,-5.292,-4.702
198.0242,-5.6836,-5.0707,-4.6788
198.0629,-5.2728,-4.9795,-4.8666
198.1015,-5.2313,-5.1285,-5.0519
198.1402,-5.1267,-5.2376,-5.1183
198.1788,-5.3854,-5.1564,-4.7363
198.2175,-4.939,-5.6845,-4.9836
198.2561,-5.2718,-5.3886,-5.0574
198.2948,-4.9325,-4.9153,-4.9462
198.3334,-5.2767,-5.4037,-5.2407
198.372,-5.0768,-5.0134,-4.8758
198.4107,-5.2453,-6.0445,-4.9349
198.4493,-4.8901,-4.9668,-5.284
198.488,-5.1642,-5.2772,-5.4698
198.5266,-5.3071,-5.5763,-4.979
198.5653,-5.1158,-5.5174,-5.2297
198.6039,-5.2599,-5.1517,-4.774
198.6426,-5.2562,-5.1923,-4.7438
198.6812,-5.0601,-5.032,-4.9632
198.7199,-4.8189,-5.0572,-4.7149
198.7585,-5.0789,-5.098,-4.9687
198.7972,-4.992,-5.0821,-4.8371
198.8358,-4.9614,-5.5845,-4.5923
198.8744,-4.9596,-5.4574,-4.592
198.9131,-4.9836,-4.9046,-5.0895
198.9517,-5.8439,-5.1058,-5.2249
198.9904,-4.9681,-5.2627,-4.594
199.029,-5.7402,-5.175,-4.5152
199.0677,-4.953,-5.1801,-5.1855
199.1063,-5.0202,-5.4766,-4.8005
199.145,-4.95,-5.5973,-5.1504
199.1836,-5.6866,-5.1471,-4.7508
199.2223,-4.7518,-5.0932,-4.7302
199.2609,-4.9412,-5.2463,-4.8923
199.2996,-4.8332,-4.8595,-4.8416
199.3382,-4.9672,-4.9352,-5.1368
199.3769,-4.8689,-5.0754,-4.7881
199.4155,-4.806,-5.0348,-4.9774
199.4541,-5.35,-4.9056,-5.2731
199.4928,-4.8904,-5.1542,-5.016
199.5314,-5.5695,-5.1135,-5.3641
199.5701,-4.9678,-5.0089,-4.5964
199.6087,-4.8757,-5.1544,-4.7655
199.6474,-4.8558,-5.3186,-4.9371
199.686,-5.3207,-4.988,-5.2816
199.7247,-5.2497,-5.0551,-4.494
199.7633,-4.909,-5.483,-5.6416
199.802,-4.7557,-4.9968,-4.8754
199.8406,-5.7775,-5.4653,-4.6769
199.8793,-5.4583,-5.2229,-4.6807
199.9179,-5.3355,-5.0839,-4.5621
199.9565,-5.0613,-4.6749,-4.3278
199.9952,-4.7413,-5.1991,-4.9947
